
Integration time [ms]:   0.100
Averaging Nr. [scans]: 1000
Smoothing Nr. [pixels]: 0
Data measured with spectrometer [name]: 7213323SP
Wave   ;Sample   ;Dark     ;Reference;Scope Corrected for Dark
[nm]   ;[counts] ;[counts] ;[counts] ;[counts] 

 175.65;  181.951;  185.783;  180.414;-3.83201
 176.25;  201.553;  205.927;  201.051;-4.37373
 176.85;  198.927;  202.683;  197.041;-3.75603
 177.45;  199.031;  203.508;  199.894;-4.47708
 178.05;  189.913;  193.685;  190.085;-3.77197
 178.65;  189.073;  193.947;  189.195;-4.87433
 179.25;  184.665;  189.491;  186.282;-4.82552
 179.85;  193.054;  197.291;  191.669;-4.23724
 180.45;  183.879;  188.606;  185.031;-4.72713
 181.05;  225.759;  231.340;  226.588;-5.58068
 181.65;  185.813;  192.091;  188.083;-6.27838
 182.25;  207.783;  211.949;  206.883;-4.16525
 182.86;  202.908;  207.996;  202.121;-5.08777
 183.46;  201.532;  206.147;  200.708;-4.61449
 184.06;  184.416;  189.341;  185.033;-4.92492
 184.66;  165.785;  169.990;  164.643;-4.20529
 185.26;  208.922;  213.061;  214.998;-4.13901
 185.86;  189.800;  193.960;  191.880;-4.15990
 186.46;  211.093;  214.994;  211.614;-3.90168
 187.06;  193.841;  196.902;  194.406;-3.06110
 187.66;  215.221;  219.094;  216.525;-3.87258
 188.26;  219.830;  223.645;  220.940;-3.81440
 188.86;  200.307;  202.311;  200.640;-2.00364
 189.46;  195.748;  199.956;  198.052;-4.20801
 190.06;  186.989;  190.583;  188.358;-3.59376
 190.66;  193.522;  196.091;  194.493;-2.56966
 191.26;  210.385;  214.076;  212.779;-3.69080
 191.86;  205.751;  210.199;  207.622;-4.44824
 192.46;  205.650;  209.408;  206.770;-3.75781
 193.06;  207.327;  210.877;  207.841;-3.55017
 193.66;  197.538;  200.410;  199.942;-2.87221
 194.26;  213.738;  217.694;  218.472;-3.95643
 194.86;  181.413;  184.639;  184.097;-3.22637
 195.46;  188.312;  191.975;  189.176;-3.66317
 196.06;  201.477;  205.195;  202.533;-3.71789
 196.66;  178.385;  183.302;  181.286;-4.91737
 197.26;  178.656;  182.502;  180.080;-3.84678
 197.86;  209.685;  212.390;  210.197;-2.70492
 198.46;  177.002;  180.583;  179.072;-3.58056
 199.06;  204.685;  209.579;  206.441;-4.89399
 199.66;  192.831;  197.179;  194.867;-4.34797
 200.26;  183.279;  186.929;  185.670;-3.64964
 200.85;  200.928;  204.678;  202.080;-3.75005
 201.45;  192.444;  196.412;  195.434;-3.96787
 202.05;  192.597;  197.534;  195.645;-4.93691
 202.65;  187.759;  193.343;  189.896;-5.58422
 203.25;  180.124;  182.811;  181.206;-2.68673
 203.85;  193.906;  197.717;  195.949;-3.81064
 204.45;  223.655;  226.232;  226.293;-2.57708
 205.05;  168.760;  172.215;  170.599;-3.45489
 205.65;  176.584;  180.256;  177.581;-3.67185
 206.25;  202.766;  206.201;  205.331;-3.43482
 206.85;  181.635;  186.155;  183.435;-4.52005
 207.45;  188.764;  193.446;  191.637;-4.68251
 208.05;  179.116;  182.052;  180.242;-2.93585
 208.65;  179.820;  183.924;  182.976;-4.10466
 209.25;  172.479;  177.281;  174.426;-4.80255
 209.84;  201.846;  204.778;  203.273;-2.93241
 210.44;  183.540;  185.831;  184.524;-2.29101
 211.04;  217.410;  220.826;  219.523;-3.41641
 211.64;  183.431;  186.519;  184.227;-3.08760
 212.24;  194.820;  197.061;  196.408;-2.24084
 212.84;  190.232;  192.686;  191.061;-2.45421
 213.44;  176.795;  179.742;  179.735;-2.94690
 214.04;  175.710;  179.422;  178.889;-3.71282
 214.64;  193.821;  196.010;  196.183;-2.18890
 215.24;  172.978;  176.617;  175.860;-3.63821
 215.83;  194.380;  197.577;  195.308;-3.19737
 216.43;  162.025;  165.306;  164.475;-3.28173
 217.03;  169.013;  173.213;  173.835;-4.20021
 217.63;  176.379;  178.375;  178.008;-1.99591
 218.23;  184.034;  188.109;  187.688;-4.07425
 218.83;  175.553;  179.774;  179.547;-4.22173
 219.43;  173.148;  176.967;  177.218;-3.81900
 220.03;  165.313;  169.902;  168.913;-4.58874
 220.62;  171.822;  174.413;  174.999;-2.59114
 221.22;  181.960;  184.038;  185.496;-2.07830
 221.82;  187.089;  189.802;  189.660;-2.71316
 222.42;  164.861;  167.270;  168.935;-2.40855
 223.02;  178.461;  181.217;  182.327;-2.75564
 223.62;  169.339;  171.654;  175.421;-2.31452
 224.22;  190.021;  191.896;  195.708;-1.87548
 224.81;  183.649;  185.750;  190.209;-2.10132
 225.41;  182.189;  185.009;  189.807;-2.82005
 226.01;  168.379;  170.181;  175.050;-1.80143
 226.61;  171.111;  172.916;  178.854;-1.80489
 227.21;  171.908;  173.765;  178.313;-1.85729
 227.81;  197.364;  198.744;  205.112;-1.37996
 228.40;  164.489;  166.154;  172.708;-1.66482
 229.00;  174.034;  173.395;  181.048; 0.63915
 229.60;  175.032;  176.512;  183.766;-1.48015
 230.20;  201.618;  201.884;  211.512;-0.26641
 230.80;  162.767;  163.338;  172.378;-0.57080
 231.39;  159.322;  160.293;  169.722;-0.97085
 231.99;  178.765;  178.183;  189.251; 0.58179
 232.59;  205.143;  204.573;  217.599; 0.56961
 233.19;  175.296;  173.410;  188.513; 1.88556
 233.79;  187.897;  186.319;  202.434; 1.57750
 234.38;  174.330;  172.812;  190.099; 1.51804
 234.98;  180.302;  178.647;  196.074; 1.65497
 235.58;  183.525;  181.406;  201.586; 2.11897
 236.18;  196.182;  193.264;  212.456; 2.91804
 236.78;  184.221;  182.090;  202.247; 2.13135
 237.37;  197.532;  191.811;  218.441; 5.72163
 237.97;  202.499;  197.556;  224.600; 4.94310
 238.57;  203.687;  198.851;  226.967; 4.83602
 239.17;  175.217;  168.430;  198.792; 6.78694
 239.76;  195.851;  187.085;  220.862; 8.76660
 240.36;  184.243;  176.163;  212.675; 8.07940
 240.96;  213.613;  204.218;  243.349; 9.39488
 241.56;  182.600;  173.281;  211.808; 9.31917
 242.15;  192.095;  179.736;  223.065;12.35924
 242.75;  210.699;  198.403;  246.418;12.29572
 243.35;  190.328;  177.349;  226.927;12.97879
 243.95;  202.370;  186.928;  243.754;15.44269
 244.54;  215.790;  201.186;  259.178;14.60458
 245.14;  211.958;  194.469;  258.872;17.48897
 245.74;  229.879;  212.340;  280.750;17.53865
 246.34;  203.600;  183.537;  260.989;20.06294
 246.93;  220.862;  197.063;  283.881;23.79896
 247.53;  179.330;  153.235;  263.537;26.09549
 248.13;  228.964;  193.395;  330.762;35.56990
 248.73;  219.300;  181.770;  312.884;37.53017
 249.32;  219.847;  185.280;  307.340;34.56749
 249.92;  212.525;  175.296;  313.021;37.22901
 250.52;  237.865;  191.298;  364.988;46.56697
 251.11;  252.319;  192.564;  413.921;59.75529
 251.71;  296.734;  207.719;  535.383;89.01556
 252.31;  369.021;  163.680; 1116.602;205.34154
 252.91; 2941.671;  187.361;12306.623;2754.30928
 253.50;10975.460;  154.812;38070.578;10820.64719
 254.10;11707.480;  198.001;33115.004;11509.47883
 254.70; 3188.191;  166.640; 7397.543;3021.55099
 255.29;  396.127;  201.462;  779.898;194.66504
 255.89;  269.230;  184.944;  427.893;84.28601
 256.49;  227.610;  168.140;  337.986;59.46994
 257.08;  217.589;  174.424;  312.391;43.16511
 257.68;  223.599;  190.194;  307.577;33.40516
 258.28;  215.926;  187.081;  290.710;28.84535
 258.87;  216.519;  191.826;  281.589;24.69320
 259.47;  198.548;  177.615;  256.904;20.93309
 260.07;  204.593;  184.430;  258.984;20.16290
 260.66;  179.395;  160.137;  230.508;19.25754
 261.26;  226.653;  209.045;  273.389;17.60742
 261.86;  216.035;  200.756;  260.153;15.27874
 262.45;  191.083;  176.279;  231.401;14.80409
 263.05;  190.005;  176.522;  230.199;13.48306
 263.65;  190.063;  178.642;  226.449;11.42054
 264.24;  203.798;  193.555;  241.350;10.24294
 264.84;  222.002;  205.161;  281.498;16.84058
 265.44;  205.616;  182.325;  273.867;23.29181
 266.03;  191.873;  177.647;  231.179;14.22554
 266.63;  174.280;  167.718;  197.785; 6.56187
 267.23;  188.003;  185.031;  211.605; 2.97170
 267.82;  167.927;  164.037;  187.883; 3.88981
 268.42;  177.200;  172.003;  194.649; 5.19709
 269.01;  175.561;  172.399;  194.558; 3.16189
 269.61;  185.369;  181.283;  204.840; 4.08561
 270.21;  188.632;  185.189;  207.045; 3.44267
 270.80;  205.981;  202.637;  224.414; 3.34408
 271.40;  168.576;  165.255;  183.775; 3.32105
 271.99;  203.530;  200.379;  218.373; 3.15079
 272.59;  160.701;  157.284;  177.199; 3.41688
 273.19;  170.879;  168.338;  186.254; 2.54140
 273.78;  159.406;  156.316;  175.177; 3.08972
 274.38;  173.843;  170.500;  193.021; 3.34303
 274.97;  186.444;  180.598;  212.682; 5.84601
 275.57;  188.176;  181.240;  215.124; 6.93615
 276.17;  157.065;  151.526;  175.473; 5.53895
 276.76;  182.430;  179.919;  200.892; 2.51090
 277.36;  179.813;  176.316;  195.657; 3.49783
 277.95;  185.489;  181.802;  202.104; 3.68644
 278.55;  169.007;  165.621;  183.571; 3.38568
 279.14;  187.367;  182.527;  204.050; 4.83970
 279.74;  186.726;  181.713;  211.006; 5.01259
 280.34;  175.579;  166.854;  207.562; 8.72452
 280.93;  212.616;  202.511;  243.101;10.10490
 281.53;  170.867;  161.140;  204.471; 9.72708
 282.12;  197.820;  184.315;  242.247;13.50570
 282.72;  189.880;  175.619;  237.668;14.26097
 283.31;  193.899;  183.090;  225.194;10.80991
 283.91;  169.319;  163.396;  189.204; 5.92243
 284.50;  194.625;  190.107;  209.412; 4.51734
 285.10;  204.378;  201.548;  220.160; 2.82957
 285.69;  166.059;  161.840;  181.279; 4.21921
 286.29;  190.189;  186.696;  205.333; 3.49309
 286.89;  178.962;  175.323;  193.509; 3.63949
 287.48;  183.993;  181.152;  198.821; 2.84074
 288.08;  199.768;  195.308;  213.941; 4.46034
 288.67;  184.533;  176.735;  211.533; 7.79809
 289.27;  193.183;  177.393;  238.460;15.78945
 289.86;  190.180;  175.474;  224.048;14.70570
 290.46;  164.582;  160.923;  182.953; 3.65912
 291.05;  177.196;  175.660;  190.854; 1.53625
 291.65;  173.263;  169.699;  186.464; 3.56416
 292.24;  198.955;  195.774;  217.061; 3.18114
 292.84;  183.360;  179.766;  198.640; 3.59372
 293.43;  188.705;  184.841;  201.754; 3.86404
 294.03;  184.685;  182.158;  197.677; 2.52697
 294.62;  192.093;  188.921;  205.562; 3.17147
 295.22;  172.850;  169.760;  187.902; 3.09009
 295.81;  188.428;  183.134;  227.659; 5.29399
 296.41;  278.270;  172.707;  618.639;105.56307
 297.00;  410.552;  187.888;  879.669;222.66372
 297.60;  290.756;  177.385;  448.744;113.37125
 298.19;  198.779;  182.774;  234.456;16.00482
 298.78;  186.426;  178.714;  208.659; 7.71148
 299.38;  168.759;  165.210;  184.146; 3.54909
 299.97;  195.456;  192.233;  207.510; 3.22275
 300.57;  183.204;  179.790;  193.837; 3.41375
 301.16;  141.106;  137.570;  152.734; 3.53613
 301.76;  185.160;  175.571;  237.006; 9.58860
 302.35;  214.865;  178.039;  322.268;36.82695
 302.95;  229.036;  195.801;  300.113;33.23591
 303.54;  164.508;  154.947;  188.905; 9.56152
 304.14;  164.512;  159.794;  182.352; 4.71801
 304.73;  196.106;  192.017;  213.586; 4.08988
 305.32;  184.651;  182.304;  200.159; 2.34740
 305.92;  165.327;  161.694;  180.386; 3.63224
 306.51;  161.637;  158.503;  174.896; 3.13340
 307.11;  179.933;  177.229;  194.701; 2.70431
 307.70;  159.490;  156.496;  174.665; 2.99384
 308.29;  161.896;  159.940;  177.264; 1.95543
 308.89;  169.944;  167.440;  185.946; 2.50493
 309.48;  132.419;  128.932;  149.281; 3.48633
 310.08;  172.326;  168.493;  192.005; 3.83261
 310.67;  173.312;  168.955;  194.927; 4.35671
 311.27;  163.832;  153.804;  202.344;10.02787
 311.86;  220.838;  160.259;  434.649;60.57846
 312.45;  444.620;  166.112; 1292.883;278.50846
 313.05;  761.867;  176.059; 2220.983;585.80845
 313.64;  748.831;  170.333; 1904.856;578.49796
 314.23;  425.345;  159.036;  905.625;266.30934
 314.83;  260.861;  183.457;  437.262;77.40447
 315.42;  204.060;  153.736;  324.042;50.32414
 316.02;  195.494;  157.548;  288.107;37.94691
 316.61;  181.952;  152.189;  258.543;29.76312
 317.20;  190.241;  165.999;  253.209;24.24247
 317.80;  177.677;  160.221;  232.493;17.45609
 318.39;  182.571;  163.795;  233.203;18.77589
 318.98;  207.192;  193.744;  247.328;13.44775
 319.58;  179.433;  169.828;  216.003; 9.60479
 320.17;  180.216;  168.575;  213.990;11.64047
 320.76;  178.958;  168.871;  212.286;10.08670
 321.36;  177.420;  169.357;  202.238; 8.06316
 321.95;  171.373;  167.621;  195.718; 3.75257
 322.55;  190.584;  186.082;  213.062; 4.50270
 323.14;  158.483;  152.739;  181.970; 5.74491
 323.73;  161.137;  154.753;  184.904; 6.38398
 324.33;  181.542;  176.503;  201.519; 5.03919
 324.92;  173.008;  170.029;  192.560; 2.97855
 325.51;  169.961;  168.343;  187.946; 1.61798
 326.10;  164.073;  162.183;  181.914; 1.88931
 326.70;  175.612;  173.882;  193.516; 1.72970
 327.29;  172.016;  169.970;  187.224; 2.04575
 327.88;  167.008;  165.081;  182.818; 1.92650
 328.48;  178.166;  176.911;  198.026; 1.25538
 329.07;  183.578;  180.658;  199.266; 2.92005
 329.66;  173.668;  170.927;  189.404; 2.74057
 330.26;  177.436;  176.096;  192.723; 1.34052
 330.85;  182.680;  179.929;  195.784; 2.75041
 331.44;  177.142;  175.423;  189.246; 1.71939
 332.04;  178.863;  176.871;  189.683; 1.99213
 332.63;  165.839;  164.646;  174.903; 1.19296
 333.22;  177.603;  176.877;  195.090; 0.72526
 333.81;  191.920;  180.994;  235.574;10.92621
 334.41;  197.182;  180.880;  249.291;16.30175
 335.00;  198.623;  190.775;  222.102; 7.84827
 335.59;  175.181;  175.896;  182.714;-0.71580
 336.18;  184.586;  186.918;  190.339;-2.33156
 336.78;  163.669;  165.381;  169.251;-1.71189
 337.37;  167.953;  171.039;  174.332;-3.08584
 337.96;  225.582;  227.172;  229.099;-1.58980
 338.55;  196.053;  198.467;  200.760;-2.41370
 339.15;  184.173;  185.489;  187.809;-1.31670
 339.74;  172.665;  174.451;  176.051;-1.78648
 340.33;  168.276;  171.198;  172.264;-2.92146
 340.92;  181.632;  183.361;  185.726;-1.72839
 341.52;  175.126;  177.029;  179.138;-1.90295
 342.11;  171.645;  174.246;  175.982;-2.60111
 342.70;  158.152;  160.769;  162.731;-2.61630
 343.29;  176.695;  179.040;  180.213;-2.34556
 343.89;  162.358;  164.528;  166.492;-2.17019
 344.48;  176.627;  177.707;  181.187;-1.08020
 345.07;  154.469;  155.616;  158.639;-1.14716
 345.66;  182.596;  184.240;  186.801;-1.64407
 346.25;  167.620;  169.051;  171.893;-1.43072
 346.85;  181.011;  181.558;  184.557;-0.54725
 347.44;  159.394;  160.356;  164.301;-0.96220
 348.03;  167.401;  169.905;  173.428;-2.50459
 348.62;  187.193;  188.520;  191.544;-1.32765
 349.21;  164.035;  165.562;  170.085;-1.52668
 349.81;  176.155;  177.349;  180.710;-1.19436
 350.40;  163.506;  164.108;  168.015;-0.60166
 350.99;  158.941;  159.635;  164.370;-0.69380
 351.58;  169.499;  168.959;  175.213; 0.53993
 352.17;  145.779;  144.645;  150.727; 1.13444
 352.77;  169.233;  167.961;  175.698; 1.27198
 353.36;  176.184;  177.249;  184.777;-1.06493
 353.95;  177.462;  175.374;  183.532; 2.08767
 354.54;  157.820;  156.091;  164.695; 1.72965
 355.13;  176.300;  174.712;  185.178; 1.58812
 355.72;  181.499;  179.625;  189.178; 1.87321
 356.32;  169.695;  168.462;  179.394; 1.23262
 356.91;  189.059;  187.012;  198.581; 2.04635
 357.50;  173.251;  170.027;  181.332; 3.22491
 358.09;  167.125;  164.519;  175.948; 2.60519
 358.68;  172.303;  168.653;  182.453; 3.64985
 359.27;  182.887;  179.216;  193.575; 3.67050
 359.86;  189.405;  185.506;  201.175; 3.89957
 360.46;  162.699;  157.654;  174.085; 5.04500
 361.05;  178.790;  172.518;  190.340; 6.27171
 361.64;  173.067;  167.374;  185.086; 5.69391
 362.23;  178.445;  171.842;  194.651; 6.60357
 362.82;  173.235;  163.839;  192.502; 9.39546
 363.41;  180.552;  168.397;  207.875;12.15503
 364.00;  216.963;  176.951;  353.780;40.01139
 364.59;  530.389;  183.844; 1486.313;346.54545
 365.19;  959.330;  162.882; 2522.935;796.44773
 365.78;  752.648;  182.214; 1660.725;570.43377
 366.37;  367.538;  167.548;  731.492;199.98926
 366.96;  256.964;  169.481;  397.552;87.48293
 367.55;  205.812;  181.778;  244.913;24.03409
 368.14;  190.753;  178.387;  214.336;12.36611
 368.73;  196.073;  186.299;  218.072; 9.77437
 369.32;  199.853;  188.947;  217.455;10.90648
 369.91;  193.412;  182.764;  209.941;10.64789
 370.50;  202.848;  191.469;  219.302;11.37832
 371.09;  184.129;  175.202;  202.742; 8.92741
 371.69;  180.168;  169.328;  198.902;10.84012
 372.28;  175.925;  165.466;  193.164;10.45832
 372.87;  211.659;  198.819;  229.204;12.84050
 373.46;  179.232;  166.853;  198.627;12.37877
 374.05;  200.291;  186.768;  218.578;13.52241
 374.64;  200.841;  185.885;  220.031;14.95664
 375.23;  191.132;  176.637;  210.680;14.49498
 375.82;  210.210;  195.424;  231.757;14.78637
 376.41;  207.444;  191.792;  227.311;15.65250
 377.00;  206.784;  189.710;  229.443;17.07419
 377.59;  198.281;  181.360;  220.777;16.92060
 378.18;  199.901;  181.502;  222.855;18.39868
 378.77;  198.552;  180.446;  221.661;18.10600
 379.36;  189.648;  171.454;  215.856;18.19459
 379.95;  211.489;  190.633;  236.560;20.85618
 380.54;  205.617;  184.731;  233.047;20.88555
 381.13;  219.198;  198.054;  245.947;21.14415
 381.72;  187.538;  165.850;  217.145;21.68824
 382.31;  222.024;  198.959;  250.810;23.06523
 382.90;  204.440;  181.443;  235.621;22.99666
 383.49;  251.613;  227.234;  281.132;24.37914
 384.08;  194.129;  169.673;  226.846;24.45645
 384.67;  222.082;  196.054;  252.682;26.02803
 385.26;  217.295;  189.966;  250.489;27.32901
 385.85;  201.704;  173.409;  233.966;28.29461
 386.44;  216.193;  187.634;  250.247;28.55888
 387.03;  226.875;  197.421;  264.478;29.45425
 387.62;  192.733;  163.338;  228.198;29.39487
 388.21;  227.249;  196.186;  263.020;31.06320
 388.80;  209.630;  178.007;  246.997;31.62234
 389.39;  213.268;  181.558;  253.348;31.70977
 389.98;  213.575;  181.266;  255.753;32.30956
 390.57;  213.442;  179.164;  255.437;34.27800
 391.16;  221.208;  186.709;  261.714;34.49895
 391.75;  228.815;  196.106;  269.716;32.70993
 392.34;  231.548;  196.263;  270.151;35.28503
 392.93;  227.495;  191.339;  268.909;36.15630
 393.52;  202.092;  166.840;  245.097;35.25207
 394.11;  207.313;  171.515;  250.044;35.79857
 394.70;  246.147;  210.391;  289.266;35.75613
 395.29;  226.962;  191.029;  271.052;35.93330
 395.88;  215.122;  178.836;  257.652;36.28540
 396.47;  230.913;  194.161;  273.788;36.75195
 397.05;  216.952;  178.850;  258.016;38.10202
 397.64;  229.166;  191.695;  272.155;37.47168
 398.23;  220.888;  183.469;  265.215;37.41861
 398.82;  221.955;  185.793;  265.767;36.16161
 399.41;  213.591;  175.624;  255.098;37.96671
 400.00;  209.342;  172.349;  252.393;36.99375
 400.59;  230.225;  193.132;  273.690;37.09375
 401.18;  223.556;  186.235;  269.091;37.32106
 401.77;  217.809;  180.529;  262.585;37.28058
 402.36;  231.133;  194.073;  281.319;37.05985
 402.95;  218.669;  176.865;  273.673;41.80396
 403.53;  252.333;  193.473;  388.007;58.85922
 404.12;  508.060;  179.919; 1465.115;328.14181
 404.71;  932.711;  177.698; 2583.144;755.01319
 405.30;  679.392;  158.448; 1466.161;520.94397
 405.89;  281.125;  172.611;  421.434;108.51364
 406.48;  238.085;  194.565;  292.922;43.52058
 407.07;  210.382;  166.267;  287.548;44.11422
 407.66;  260.205;  189.535;  386.657;70.66998
 408.24;  257.229;  190.223;  354.475;67.00585
 408.83;  230.878;  192.720;  276.672;38.15838
 409.42;  198.404;  167.033;  233.595;31.37080
 410.01;  213.048;  182.853;  246.646;30.19570
 410.60;  221.866;  193.582;  254.574;28.28420
 411.19;  191.166;  162.868;  222.268;28.29765
 411.78;  191.684;  164.580;  221.798;27.10358
 412.36;  195.128;  169.760;  225.619;25.36785
 412.95;  202.200;  177.768;  232.970;24.43259
 413.54;  223.222;  200.262;  253.428;22.96027
 414.13;  216.779;  190.969;  245.348;25.81007
 414.72;  197.939;  174.563;  226.540;23.37622
 415.31;  199.576;  175.308;  228.778;24.26810
 415.89;  180.049;  156.787;  208.684;23.26122
 416.48;  196.293;  176.500;  225.226;19.79336
 417.07;  188.131;  167.929;  214.352;20.20218
 417.66;  217.820;  197.499;  243.116;20.32084
 418.25;  201.711;  182.567;  226.683;19.14378
 418.83;  196.539;  178.673;  222.017;17.86601
 419.42;  201.603;  182.859;  226.599;18.74442
 420.01;  203.634;  185.601;  228.959;18.03262
 420.60;  202.697;  183.877;  225.851;18.82026
 421.19;  223.846;  207.381;  246.419;16.46470
 421.77;  179.486;  163.362;  202.087;16.12355
 422.36;  209.346;  192.702;  230.957;16.64494
 422.95;  196.897;  181.905;  218.066;14.99284
 423.54;  214.336;  199.674;  236.024;14.66200
 424.12;  204.176;  191.729;  225.095;12.44733
 424.71;  204.809;  191.024;  224.132;13.78574
 425.30;  210.134;  195.949;  231.290;14.18471
 425.89;  208.131;  194.640;  228.544;13.49081
 426.48;  198.885;  187.742;  220.262;11.14288
 427.06;  192.800;  180.325;  212.383;12.47481
 427.65;  205.706;  194.373;  225.779;11.33272
 428.24;  184.493;  173.882;  202.939;10.61091
 428.83;  194.722;  182.524;  213.653;12.19831
 429.41;  204.907;  195.650;  224.759; 9.25693
 430.00;  193.126;  182.279;  211.652;10.84656
 430.59;  225.582;  215.774;  246.183; 9.80834
 431.17;  209.865;  197.939;  229.574;11.92581
 431.76;  211.048;  198.877;  230.916;12.17093
 432.35;  220.941;  207.590;  241.614;13.35039
 432.94;  216.523;  203.248;  244.729;13.27459
 433.52;  218.629;  200.767;  258.083;17.86153
 434.11;  234.118;  207.894;  298.172;26.22336
 434.70;  264.262;  198.296;  485.671;65.96525
 435.29;  836.916;  212.896; 2805.055;624.02025
 435.87; 1711.385;  206.719; 5150.592;1504.66561
 436.46; 1190.175;  210.740; 2722.762;979.43521
 437.05;  327.274;  183.603;  540.545;143.67123
 437.63;  225.765;  201.332;  274.666;24.43275
 438.22;  223.125;  203.832;  248.964;19.29325
 438.81;  229.214;  216.074;  253.576;13.14014
 439.39;  199.762;  190.341;  219.764; 9.42082
 439.98;  214.402;  206.514;  232.521; 7.88823
 440.57;  209.053;  201.749;  225.617; 7.30348
 441.15;  203.438;  197.083;  219.055; 6.35432
 441.74;  208.836;  203.234;  220.966; 5.60250
 442.33;  214.392;  210.182;  227.628; 4.21064
 442.91;  209.830;  204.665;  222.203; 5.16553
 443.50;  200.134;  195.081;  212.909; 5.05300
 444.09;  190.545;  187.318;  202.260; 3.22734
 444.67;  224.489;  220.137;  236.318; 4.35198
 445.26;  204.056;  200.047;  213.821; 4.00937
 445.85;  217.924;  213.759;  229.093; 4.16500
 446.43;  202.217;  197.378;  213.253; 4.83889
 447.02;  203.604;  199.195;  213.971; 4.40943
 447.61;  184.912;  180.285;  193.601; 4.62680
 448.19;  208.227;  205.617;  218.236; 2.61006
 448.78;  199.758;  196.885;  208.027; 2.87282
 449.36;  202.535;  200.522;  212.489; 2.01232
 449.95;  196.384;  194.136;  205.296; 2.24890
 450.54;  193.825;  190.992;  202.068; 2.83282
 451.12;  215.198;  213.227;  224.440; 1.97103
 451.71;  181.092;  178.246;  190.035; 2.84551
 452.30;  206.782;  203.933;  214.755; 2.84839
 452.88;  196.147;  193.927;  204.263; 2.22012
 453.47;  179.878;  178.301;  188.234; 1.57698
 454.05;  189.344;  187.381;  198.324; 1.96313
 454.64;  200.365;  198.638;  209.186; 1.72662
 455.22;  214.481;  213.190;  222.695; 1.29026
 455.81;  178.966;  177.234;  186.806; 1.73153
 456.40;  214.264;  213.844;  221.415; 0.42007
 456.98;  189.141;  187.286;  196.557; 1.85497
 457.57;  207.217;  205.449;  214.096; 1.76804
 458.15;  213.761;  212.635;  220.194; 1.12669
 458.74;  199.609;  197.409;  205.667; 2.20001
 459.33;  203.175;  203.185;  211.567;-0.01006
 459.91;  203.405;  204.309;  209.606;-0.90399
 460.50;  203.068;  201.867;  210.124; 1.20116
 461.08;  196.734;  194.525;  201.549; 2.20839
 461.67;  196.806;  197.717;  203.915;-0.91090
 462.25;  201.583;  202.160;  208.184;-0.57653
 462.84;  171.086;  171.143;  177.443;-0.05720
 463.42;  190.017;  190.005;  197.335; 0.01202
 464.01;  191.611;  192.089;  200.154;-0.47765
 464.59;  202.739;  204.720;  209.773;-1.98126
 465.18;  190.899;  190.661;  196.631; 0.23853
 465.76;  196.469;  195.978;  202.098; 0.49144
 466.35;  195.182;  195.076;  202.134; 0.10577
 466.94;  206.171;  205.588;  211.128; 0.58313
 467.52;  214.700;  215.546;  220.402;-0.84648
 468.11;  179.717;  181.263;  185.451;-1.54584
 468.69;  173.703;  175.283;  178.777;-1.58030
 469.28;  164.039;  165.781;  169.570;-1.74171
 469.86;  200.363;  201.956;  204.795;-1.59348
 470.45;  194.546;  195.976;  198.769;-1.43032
 471.03;  175.070;  176.987;  179.928;-1.91775
 471.62;  186.994;  187.494;  189.847;-0.49995
 472.20;  190.293;  191.403;  194.726;-1.10969
 472.79;  224.783;  226.987;  228.835;-2.20448
 473.37;  188.943;  189.814;  192.908;-0.87055
 473.95;  187.051;  189.323;  192.703;-2.27196
 474.54;  146.518;  149.139;  152.162;-2.62060
 475.12;  213.367;  215.707;  218.210;-2.33991
 475.71;  194.927;  196.860;  199.441;-1.93311
 476.29;  198.872;  200.246;  203.200;-1.37316
 476.88;  176.053;  176.462;  178.540;-0.40954
 477.46;  175.145;  177.365;  179.356;-2.21985
 478.05;  183.061;  185.347;  186.478;-2.28584
 478.63;  186.519;  186.990;  191.034;-0.47054
 479.22;  167.570;  169.617;  170.278;-2.04684
 479.80;  191.724;  193.848;  195.363;-2.12416
 480.38;  187.815;  188.725;  191.085;-0.91071
 480.97;  170.652;  173.631;  174.897;-2.97812
 481.55;  182.059;  184.528;  186.205;-2.46877
 482.14;  204.046;  206.846;  207.401;-2.79950
 482.72;  177.933;  180.594;  182.124;-2.66070
 483.31;  175.706;  178.196;  177.897;-2.48925
 483.89;  179.800;  182.203;  182.403;-2.40312
 484.47;  179.521;  181.411;  182.354;-1.88923
 485.06;  169.949;  171.398;  172.672;-1.44928
 485.64;  192.626;  195.727;  195.664;-3.10089
 486.23;  197.675;  200.730;  200.398;-3.05444
 486.81;  192.403;  193.913;  194.241;-1.50979
 487.39;  160.958;  162.998;  164.354;-2.03986
 487.98;  173.934;  176.232;  176.507;-2.29737
 488.56;  202.474;  205.172;  205.349;-2.69752
 489.15;  172.694;  175.879;  176.203;-3.18507
 489.73;  176.547;  179.611;  179.606;-3.06404
 490.31;  175.123;  177.484;  179.772;-2.36055
 490.90;  176.164;  178.035;  182.159;-1.87055
 491.48;  182.867;  183.404;  192.437;-0.53698
 492.06;  196.114;  196.254;  201.679;-0.13993
 492.65;  164.789;  167.123;  168.469;-2.33442
 493.23;  152.440;  155.512;  155.351;-3.07216
 493.82;  186.458;  190.279;  188.929;-3.82166
 494.40;  152.005;  156.063;  154.592;-4.05820
 494.98;  171.635;  173.980;  173.304;-2.34427
 495.57;  150.848;  155.023;  154.804;-4.17466
 496.15;  149.266;  153.475;  152.224;-4.20922
 496.73;  163.291;  166.732;  165.567;-3.44039
 497.32;  184.405;  188.806;  185.987;-4.40149
 497.90;  182.147;  185.243;  184.261;-3.09612
 498.48;  159.320;  163.264;  161.229;-3.94387
 499.07;  164.039;  168.933;  167.574;-4.89388
 499.65;  183.050;  187.241;  185.883;-4.19159
 500.23;  148.737;  152.838;  150.126;-4.10120
 500.82;  159.606;  164.071;  163.825;-4.46527
 501.40;  163.956;  168.176;  166.053;-4.21968
 501.98;  176.749;  180.379;  178.435;-3.62934
 502.56;  189.480;  193.014;  192.690;-3.53447
 503.15;  190.374;  193.763;  191.639;-3.38956
 503.73;  173.621;  176.916;  175.410;-3.29475
 504.31;  176.547;  179.871;  178.659;-3.32479
 504.90;  184.496;  187.818;  186.738;-3.32254
 505.48;  197.044;  201.702;  199.199;-4.65813
 506.06;  182.432;  186.348;  184.710;-3.91588
 506.64;  168.366;  172.437;  170.026;-4.07129
 507.23;  174.783;  178.225;  176.401;-3.44188
 507.81;  185.222;  189.522;  188.977;-4.29948
 508.39;  174.503;  177.726;  176.174;-3.22373
 508.97;  183.634;  185.371;  185.047;-1.73757
 509.56;  192.069;  195.905;  194.375;-3.83604
 510.14;  158.216;  163.341;  161.241;-5.12520
 510.72;  175.016;  179.200;  177.478;-4.18450
 511.30;  186.385;  189.355;  186.041;-2.97027
 511.89;  182.969;  187.260;  185.565;-4.29088
 512.47;  179.330;  182.290;  181.031;-2.96049
 513.05;  174.831;  178.056;  177.585;-3.22579
 513.63;  176.028;  179.262;  177.868;-3.23344
 514.22;  188.156;  190.671;  189.266;-2.51519
 514.80;  186.165;  189.987;  188.139;-3.82266
 515.38;  176.741;  180.929;  179.039;-4.18772
 515.96;  198.468;  201.970;  200.259;-3.50190
 516.55;  170.989;  174.993;  172.391;-4.00468
 517.13;  182.359;  185.281;  186.021;-2.92142
 517.71;  166.599;  170.696;  169.247;-4.09725
 518.29;  167.341;  170.994;  170.914;-3.65304
 518.87;  180.262;  182.773;  182.674;-2.51043
 519.46;  172.025;  176.196;  174.753;-4.17138
 520.04;  175.682;  177.299;  177.625;-1.61702
 520.62;  165.341;  168.520;  166.467;-3.17941
 521.20;  162.361;  165.834;  162.686;-3.47307
 521.78;  177.886;  181.708;  180.553;-3.82186
 522.36;  174.904;  177.525;  175.982;-2.62150
 522.95;  174.115;  177.350;  177.197;-3.23480
 523.53;  162.293;  165.613;  164.834;-3.31941
 524.11;  173.779;  176.984;  176.760;-3.20533
 524.69;  168.642;  171.661;  170.408;-3.01963
 525.27;  171.575;  173.930;  173.546;-2.35547
 525.85;  181.926;  184.072;  182.985;-2.14522
 526.44;  181.236;  184.689;  182.487;-3.45288
 527.02;  188.526;  192.458;  192.145;-3.93218
 527.60;  183.069;  186.713;  184.817;-3.64400
 528.18;  166.144;  167.457;  168.352;-1.31332
 528.76;  194.923;  196.792;  197.754;-1.86895
 529.34;  179.127;  183.260;  182.904;-4.13314
 529.92;  196.772;  200.420;  199.070;-3.64757
 530.51;  186.446;  189.152;  189.082;-2.70545
 531.09;  177.744;  180.154;  180.559;-2.41048
 531.67;  172.523;  176.171;  176.286;-3.64875
 532.25;  195.319;  197.521;  198.863;-2.20157
 532.83;  195.809;  197.957;  200.968;-2.14811
 533.41;  171.130;  173.583;  175.342;-2.45329
 533.99;  195.817;  198.349;  200.241;-2.53268
 534.57;  214.841;  217.315;  219.337;-2.47476
 535.15;  177.833;  179.558;  181.714;-1.72526
 535.74;  171.979;  173.355;  177.698;-1.37579
 536.32;  178.316;  180.199;  183.533;-1.88322
 536.90;  169.846;  171.801;  173.158;-1.95459
 537.48;  183.214;  186.379;  186.764;-3.16477
 538.06;  200.857;  204.270;  204.852;-3.41307
 538.64;  187.491;  188.959;  193.302;-1.46806
 539.22;  179.120;  181.431;  184.206;-2.31084
 539.80;  185.480;  187.023;  190.142;-1.54320
 540.38;  199.960;  202.015;  205.750;-2.05449
 540.96;  170.143;  172.174;  176.155;-2.03093
 541.54;  176.952;  177.715;  183.672;-0.76357
 542.12;  220.693;  221.327;  228.946;-0.63434
 542.70;  168.607;  167.198;  178.319; 1.40848
 543.28;  188.463;  185.638;  202.682; 2.82491
 543.86;  184.801;  179.558;  204.103; 5.24374
 544.44;  242.908;  229.764;  278.849;13.14337
 545.02;  267.907;  197.806;  518.343;70.10089
 545.61; 1160.214;  187.133; 3429.565;973.08114
 546.19; 1854.578;  191.494; 4874.079;1663.08412
 546.77;  862.717;  184.926; 1764.281;677.79066
 547.35;  284.084;  216.969;  398.729;67.11544
 547.93;  209.007;  192.583;  238.837;16.42463
 548.51;  200.969;  195.648;  217.970; 5.32130
 549.09;  205.526;  204.032;  218.477; 1.49334
 549.67;  203.553;  203.150;  211.654; 0.40310
 550.25;  184.172;  185.505;  191.700;-1.33279
 550.83;  207.329;  208.767;  213.583;-1.43756
 551.41;  195.308;  195.331;  198.861;-0.02356
 551.99;  193.420;  194.669;  196.932;-1.24866
 552.57;  192.956;  194.889;  197.915;-1.93304
 553.15;  211.053;  213.946;  214.893;-2.89312
 553.73;  171.763;  174.061;  174.930;-2.29854
 554.30;  202.351;  205.492;  206.191;-3.14125
 554.88;  188.485;  190.590;  191.836;-2.10534
 555.46;  197.152;  199.623;  201.328;-2.47086
 556.04;  191.370;  193.834;  193.265;-2.46411
 556.62;  213.070;  215.177;  215.762;-2.10671
 557.20;  174.814;  180.119;  178.369;-5.30534
 557.78;  198.463;  201.147;  201.259;-2.68472
 558.36;  212.089;  214.341;  213.174;-2.25152
 558.94;  210.755;  212.844;  212.481;-2.08877
 559.52;  182.547;  186.182;  185.274;-3.63497
 560.10;  198.158;  201.499;  200.758;-3.34086
 560.68;  197.326;  199.206;  200.698;-1.87952
 561.26;  217.896;  221.239;  221.469;-3.34220
 561.84;  176.495;  180.470;  179.169;-3.97502
 562.42;  191.798;  194.239;  194.921;-2.44067
 563.00;  199.394;  201.398;  200.683;-2.00475
 563.58;  195.053;  197.781;  197.730;-2.72798
 564.15;  192.106;  195.206;  196.425;-3.10029
 564.73;  201.029;  202.543;  203.546;-1.51397
 565.31;  210.667;  213.837;  214.694;-3.17011
 565.89;  177.352;  179.559;  180.168;-2.20730
 566.47;  188.027;  189.387;  190.334;-1.36053
 567.05;  207.948;  211.210;  209.801;-3.26266
 567.63;  190.319;  194.227;  193.745;-3.90838
 568.21;  183.939;  186.918;  188.234;-2.97923
 568.79;  208.248;  213.040;  211.859;-4.79166
 569.36;  232.389;  236.037;  236.033;-3.64878
 569.94;  187.189;  189.897;  190.086;-2.70857
 570.52;  205.750;  209.414;  208.876;-3.66406
 571.10;  154.302;  157.228;  157.098;-2.92615
 571.68;  196.995;  199.169;  199.348;-2.17441
 572.26;  203.275;  205.252;  206.805;-1.97727
 572.84;  207.902;  211.646;  213.302;-3.74339
 573.41;  187.140;  188.731;  191.510;-1.59105
 573.99;  229.509;  232.272;  234.484;-2.76243
 574.57;  192.313;  194.210;  198.005;-1.89646
 575.15;  226.172;  226.994;  233.762;-0.82193
 575.73;  214.234;  211.061;  238.659; 3.17375
 576.31;  301.918;  207.503;  581.907;94.41487
 576.88;  434.692;  183.441;  993.686;251.25145
 577.46;  357.342;  191.931;  632.249;165.41059
 578.04;  219.379;  186.325;  314.338;33.05386
 578.62;  369.000;  185.047;  838.586;183.95382
 579.20;  457.112;  190.908; 1006.280;266.20455
 579.78;  291.228;  199.021;  438.584;92.20714
 580.35;  205.277;  198.263;  224.094; 7.01438
 580.93;  185.806;  186.738;  193.932;-0.93250
 581.51;  199.413;  201.746;  203.406;-2.33262
 582.09;  178.486;  180.813;  181.770;-2.32686
 582.67;  179.160;  182.177;  181.880;-3.01725
 583.24;  182.435;  184.733;  185.282;-2.29770
 583.82;  186.023;  189.105;  188.714;-3.08198
 584.40;  183.200;  186.757;  186.158;-3.55760
 584.98;  181.446;  184.186;  183.929;-2.74034
 585.55;  192.728;  195.976;  197.391;-3.24866
 586.13;  168.285;  171.705;  170.347;-3.41941
 586.71;  190.021;  194.074;  193.534;-4.05275
 587.29;  183.234;  188.101;  185.393;-4.86659
 587.86;  186.137;  189.231;  189.128;-3.09339
 588.44;  148.903;  152.704;  151.278;-3.80134
 589.02;  201.203;  204.099;  202.846;-2.89671
 589.60;  179.373;  182.229;  180.686;-2.85579
 590.17;  189.920;  194.163;  192.297;-4.24282
 590.75;  167.569;  171.063;  169.301;-3.49421
 591.33;  167.336;  171.421;  171.119;-4.08439
 591.91;  178.303;  180.727;  180.134;-2.42406
 592.48;  170.522;  176.081;  174.727;-5.55870
 593.06;  189.552;  193.062;  191.277;-3.51000
 593.64;  184.341;  188.266;  186.123;-3.92504
 594.21;  170.825;  173.822;  171.966;-2.99767
 594.79;  183.428;  186.194;  184.253;-2.76675
 595.37;  184.453;  187.110;  186.634;-2.65666
 595.95;  167.233;  171.408;  169.210;-4.17473
 596.52;  172.192;  178.059;  174.385;-5.86636
 597.10;  179.924;  182.221;  181.543;-2.29659
 597.68;  164.885;  168.466;  167.048;-3.58166
 598.25;  189.425;  193.124;  191.102;-3.69837
 598.83;  164.763;  170.075;  168.230;-5.31161
 599.41;  179.878;  183.925;  181.930;-4.04636
 599.98;  206.916;  209.299;  207.470;-2.38316
 600.56;  195.266;  198.222;  196.510;-2.95617
 601.14;  180.042;  183.432;  182.296;-3.38925
 601.71;  183.511;  187.701;  185.581;-4.19021
 602.29;  169.605;  173.090;  171.919;-3.48494
 602.87;  193.742;  198.007;  196.942;-4.26471
 603.44;  188.511;  190.942;  189.970;-2.43087
 604.02;  180.197;  183.873;  183.106;-3.67651
 604.60;  200.141;  205.136;  201.173;-4.99411
 605.17;  206.794;  210.883;  208.291;-4.08932
 605.75;  195.663;  200.919;  198.867;-5.25556
 606.33;  188.400;  192.459;  190.642;-4.05978
 606.90;  209.294;  213.122;  211.394;-3.82839
 607.48;  198.229;  201.531;  199.325;-3.30273
 608.05;  176.010;  180.964;  178.524;-4.95414
 608.63;  183.901;  188.721;  186.371;-4.81996
 609.21;  174.424;  179.004;  176.448;-4.57962
 609.78;  201.814;  206.910;  205.182;-5.09598
 610.36;  190.899;  195.156;  191.741;-4.25744
 610.93;  194.633;  199.919;  196.171;-5.28563
 611.51;  177.187;  181.818;  179.469;-4.63160
 612.09;  205.735;  209.802;  207.395;-4.06621
 612.66;  188.417;  191.850;  190.107;-3.43337
 613.24;  201.020;  206.140;  203.003;-5.11997
 613.81;  206.630;  209.069;  206.200;-2.43930
 614.39;  201.571;  205.430;  203.399;-3.85960
 614.96;  217.494;  221.164;  217.412;-3.67050
 615.54;  201.230;  204.199;  201.843;-2.96922
 616.12;  209.314;  213.779;  209.965;-4.46499
 616.69;  167.261;  170.837;  169.197;-3.57598
 617.27;  195.760;  198.877;  196.719;-3.11616
 617.84;  177.306;  181.457;  178.833;-4.15157
 618.42;  210.907;  216.282;  211.207;-5.37508
 618.99;  194.036;  199.422;  195.870;-5.38637
 619.57;  212.646;  217.872;  214.600;-5.22619
 620.14;  202.929;  206.661;  204.552;-3.73215
 620.72;  182.546;  185.908;  183.325;-3.36198
 621.30;  205.406;  209.281;  206.934;-3.87488
 621.87;  213.394;  218.241;  212.652;-4.84672
 622.45;  204.403;  207.620;  204.167;-3.21750
 623.02;  176.836;  179.695;  178.127;-2.85921
 623.60;  187.752;  191.127;  189.356;-3.37478
 624.17;  192.932;  198.470;  194.886;-5.53771
 624.75;  204.751;  207.818;  205.327;-3.06724
 625.32;  191.826;  195.868;  192.308;-4.04164
 625.90;  197.321;  201.307;  198.133;-3.98563
 626.47;  207.912;  213.203;  210.485;-5.29096
 627.05;  179.093;  184.182;  179.759;-5.08949
 627.62;  197.376;  201.442;  196.459;-4.06613
 628.20;  218.406;  222.275;  218.249;-3.86862
 628.77;  209.916;  214.734;  211.877;-4.81858
 629.34;  229.604;  234.869;  231.819;-5.26527
 629.92;  185.919;  190.410;  187.490;-4.49051
 630.49;  212.509;  215.566;  213.266;-3.05690
 631.07;  187.316;  192.406;  188.294;-5.08965
 631.64;  188.213;  191.284;  187.824;-3.07148
 632.22;  229.616;  234.084;  230.912;-4.46738
 632.79;  205.141;  208.841;  206.039;-3.70076
 633.37;  212.102;  216.164;  212.526;-4.06205
 633.94;  205.430;  210.820;  206.488;-5.38994
 634.52;  199.403;  203.733;  199.758;-4.32980
 635.09;  214.537;  218.961;  215.253;-4.42421
 635.66;  180.129;  184.069;  181.904;-3.93924
 636.24;  193.578;  198.740;  196.282;-5.16271
 636.81;  235.148;  239.193;  236.037;-4.04547
 637.39;  219.064;  222.206;  219.425;-3.14240
 637.96;  215.192;  218.635;  214.710;-3.44290
 638.54;  213.913;  217.872;  214.657;-3.95865
 639.11;  190.175;  193.753;  192.193;-3.57844
 639.68;  216.618;  221.833;  218.132;-5.21480
 640.26;  199.097;  204.087;  200.830;-4.98965
 640.83;  202.394;  206.459;  202.731;-4.06470
 641.41;  195.147;  198.538;  195.288;-3.39075
 641.98;  201.897;  204.173;  202.609;-2.27581
 642.55;  180.683;  184.582;  181.128;-3.89886
 643.13;  197.235;  201.280;  198.066;-4.04491
 643.70;  216.737;  221.121;  217.215;-4.38396
 644.27;  201.948;  206.951;  203.618;-5.00301
 644.85;  193.738;  196.053;  194.159;-2.31507
 645.42;  199.858;  203.918;  199.911;-4.06012
 645.99;  188.973;  193.777;  190.061;-4.80417
 646.57;  195.605;  199.365;  196.463;-3.76022
 647.14;  201.621;  204.351;  201.200;-2.73027
 647.72;  179.865;  182.960;  180.416;-3.09433
 648.29;  191.680;  195.715;  192.608;-4.03438
 648.86;  216.593;  219.854;  216.710;-3.26043
 649.44;  182.828;  187.366;  183.041;-4.53748
 650.01;  193.218;  196.697;  193.457;-3.47854
 650.58;  200.332;  206.635;  202.430;-6.30259
 651.16;  199.416;  203.225;  200.440;-3.80864
 651.73;  189.098;  192.993;  187.736;-3.89469
 652.30;  204.946;  208.247;  207.431;-3.30074
 652.87;  190.356;  194.664;  192.315;-4.30780
 653.45;  213.373;  216.135;  212.966;-2.76185
 654.02;  185.899;  191.063;  187.624;-5.16390
 654.59;  195.814;  200.659;  196.423;-4.84495
 655.17;  201.661;  205.534;  201.261;-3.87300
 655.74;  184.670;  190.469;  184.871;-5.79906
 656.31;  197.536;  201.761;  197.131;-4.22511
 656.89;  200.847;  202.652;  199.572;-1.80516
 657.46;  205.835;  209.284;  205.138;-3.44921
 658.03;  211.583;  215.188;  212.823;-3.60526
 658.60;  192.679;  198.057;  194.048;-5.37832
 659.18;  207.997;  212.581;  210.082;-4.58437
 659.75;  192.699;  197.034;  194.466;-4.33542
 660.32;  212.032;  215.487;  212.587;-3.45547
 660.89;  192.253;  196.388;  193.109;-4.13552
 661.47;  211.718;  215.584;  212.436;-3.86558
 662.04;  213.069;  215.996;  212.492;-2.92663
 662.61;  194.024;  198.714;  195.400;-4.68968
 663.18;  201.505;  205.163;  202.315;-3.65773
 663.76;  182.830;  185.763;  181.848;-2.93278
 664.33;  208.360;  211.416;  208.590;-3.05584
 664.90;  202.422;  205.960;  203.257;-3.53789
 665.47;  197.478;  200.663;  197.715;-3.18494
 666.05;  189.277;  192.534;  190.679;-3.25699
 666.62;  222.775;  227.500;  225.637;-4.72504
 667.19;  189.930;  194.157;  192.394;-4.22710
 667.76;  185.500;  187.471;  189.455;-1.97115
 668.33;  187.983;  191.824;  191.776;-3.84120
 668.91;  180.430;  184.050;  180.984;-3.62025
 669.48;  193.842;  198.330;  195.022;-4.48831
 670.05;  181.391;  185.837;  181.436;-4.44636
 670.62;  201.575;  204.091;  200.111;-2.51641
 671.19;  198.106;  201.615;  199.468;-3.50946
 671.76;  204.276;  209.083;  204.944;-4.80751
 672.34;  186.548;  190.858;  187.849;-4.31057
 672.91;  195.211;  199.040;  196.127;-3.82962
 673.48;  186.192;  189.507;  188.041;-3.31567
 674.05;  209.603;  213.379;  210.493;-3.77672
 674.62;  207.539;  210.870;  207.026;-3.33177
 675.19;  198.159;  202.024;  199.583;-3.86483
 675.77;  201.203;  205.992;  203.236;-4.78888
 676.34;  175.391;  180.600;  176.251;-5.20893
 676.91;  191.114;  196.357;  192.447;-5.24298
 677.48;  195.991;  199.204;  196.000;-3.21303
 678.05;  193.908;  196.463;  194.424;-2.55509
 678.62;  205.271;  209.037;  206.241;-3.76614
 679.19;  197.945;  201.859;  199.488;-3.91419
 679.77;  191.932;  194.613;  191.219;-2.68124
 680.34;  159.053;  162.436;  160.329;-3.38329
 680.91;  188.642;  192.401;  189.018;-3.75935
 681.48;  191.482;  196.198;  192.089;-4.71640
 682.05;  196.988;  200.788;  198.306;-3.80045
 682.62;  167.398;  172.432;  167.647;-5.03450
 683.19;  185.743;  190.794;  187.455;-5.05155
 683.76;  194.746;  199.868;  195.830;-5.12261
 684.33;  197.479;  202.143;  199.173;-4.66466
 684.90;  176.821;  180.460;  176.952;-3.63971
 685.48;  178.673;  183.164;  180.005;-4.49176
 686.05;  176.108;  180.057;  177.615;-3.94981
 686.62;  195.424;  198.586;  197.183;-3.16187
 687.19;  176.377;  179.581;  176.679;-3.20392
 687.76;  186.630;  190.217;  187.707;-3.58697
 688.33;  188.005;  192.783;  190.216;-4.77802
 688.90;  186.907;  191.337;  187.084;-4.42907
 689.47;  147.770;  152.809;  148.484;-5.03813
 690.04;  174.849;  177.694;  177.908;-2.84418
 690.61;  184.600;  185.839;  191.835;-1.23823
 691.18;  167.956;  170.278;  172.036;-2.32128
 691.75;  207.419;  212.459;  209.598;-5.03934
 692.32;  189.783;  194.106;  191.508;-4.32239
 692.89;  208.455;  211.253;  209.013;-2.79744
 693.46;  190.734;  194.866;  194.434;-4.13149
 694.03;  183.875;  188.025;  185.955;-4.14954
 694.60;  194.498;  199.672;  198.362;-5.17360
 695.17;  191.251;  191.577;  198.056;-0.32565
 695.74;  196.526;  180.134;  295.952;16.39230
 696.31;  240.075;  188.224;  526.357;51.85125
 696.88;  236.264;  198.699;  436.680;37.56520
 697.45;  184.029;  181.178;  217.769; 2.85114
 698.02;  164.594;  167.148;  171.529;-2.55391
 698.59;  165.356;  169.870;  171.783;-4.51396
 699.16;  171.781;  174.556;  173.378;-2.77501
 699.73;  184.920;  188.459;  185.243;-3.53906
 700.30;  172.320;  176.728;  173.389;-4.40812
 700.87;  190.422;  195.343;  192.910;-4.92117
 701.44;  188.191;  193.545;  190.847;-5.35422
 702.01;  183.567;  187.919;  185.005;-4.35227
 702.58;  205.917;  209.369;  206.841;-3.45132
 703.15;  171.734;  174.951;  172.191;-3.21638
 703.72;  191.591;  195.526;  192.738;-3.93443
 704.29;  165.643;  169.140;  167.346;-3.49648
 704.86;  196.772;  201.306;  199.260;-4.53353
 705.43;  189.308;  193.210;  191.919;-3.90158
 706.00;  190.566;  188.952;  222.417; 1.61436
 706.57;  192.153;  182.400;  262.230; 9.75331
 707.14;  182.146;  177.202;  221.456; 4.94426
 707.70;  211.550;  214.450;  218.764;-2.89979
 708.27;  179.536;  182.808;  179.997;-3.27184
 708.84;  176.084;  181.019;  178.009;-4.93490
 709.41;  159.244;  162.687;  159.808;-3.44295
 709.98;  202.638;  207.885;  204.521;-5.24700
 710.55;  179.410;  183.079;  181.279;-3.66905
 711.12;  198.379;  202.966;  198.254;-4.58710
 711.69;  194.039;  197.533;  194.719;-3.49416
 712.26;  193.651;  197.826;  194.505;-4.17521
 712.83;  209.163;  212.983;  210.775;-3.82026
 713.39;  194.874;  198.778;  195.453;-3.90431
 713.96;  206.596;  210.219;  212.738;-3.62337
 714.53;  194.710;  196.000;  206.613;-1.29042
 715.10;  192.986;  196.366;  202.143;-3.38047
 715.67;  174.130;  177.510;  175.208;-3.38052
 716.24;  193.803;  197.324;  193.437;-3.52057
 716.81;  210.815;  215.543;  211.046;-4.72763
 717.37;  194.731;  198.613;  195.090;-3.88168
 717.94;  201.548;  204.726;  202.676;-3.17773
 718.51;  202.672;  206.366;  203.290;-3.69378
 719.08;  185.578;  189.358;  185.101;-3.77983
 719.65;  210.763;  215.498;  211.135;-4.73489
 720.22;  205.397;  209.388;  206.097;-3.99094
 720.78;  199.416;  202.904;  198.790;-3.48799
 721.35;  185.515;  189.827;  186.655;-4.31204
 721.92;  213.657;  216.293;  214.834;-2.63609
 722.49;  202.003;  205.337;  202.874;-3.33415
 723.06;  197.929;  201.142;  198.919;-3.21320
 723.63;  167.614;  171.743;  168.342;-4.12925
 724.19;  209.804;  214.440;  210.839;-4.63630
 724.76;  187.402;  191.543;  189.063;-4.14135
 725.33;  197.297;  201.965;  199.054;-4.66841
 725.90;  217.654;  220.459;  219.058;-2.80546
 726.46;  203.772;  202.217;  233.585; 1.55449
 727.03;  231.844;  220.235;  315.146;11.60844
 727.60;  170.871;  163.342;  231.534; 7.52839
 728.17;  203.115;  205.397;  215.136;-2.28267
 728.74;  207.458;  211.747;  209.799;-4.28972
 729.30;  191.314;  194.958;  191.518;-3.64477
 729.87;  190.102;  193.779;  192.096;-3.67682
 730.44;  215.678;  218.921;  216.598;-3.24287
 731.01;  207.406;  210.214;  208.547;-2.80793
 731.57;  189.172;  192.814;  190.066;-3.64198
 732.14;  184.616;  190.337;  186.899;-5.72103
 732.71;  190.018;  192.707;  189.752;-2.68908
 733.28;  225.509;  229.421;  228.133;-3.91213
 733.84;  185.301;  188.180;  185.858;-2.87919
 734.41;  183.977;  188.004;  184.891;-4.02724
 734.98;  205.970;  209.380;  207.761;-3.41029
 735.54;  222.049;  224.732;  221.853;-2.68334
 736.11;  188.718;  193.223;  191.575;-4.50540
 736.68;  183.218;  185.566;  186.264;-2.34845
 737.25;  194.944;  196.194;  210.177;-1.25050
 737.81;  224.518;  206.607;  317.032;17.91045
 738.38;  224.953;  201.944;  364.691;23.00840
 738.95;  226.461;  218.449;  282.287; 8.01134
 739.51;  209.418;  211.819;  217.624;-2.40171
 740.08;  203.788;  206.974;  207.208;-3.18676
 740.65;  186.678;  190.451;  188.889;-3.77381
 741.21;  201.736;  205.345;  203.778;-3.60886
 741.78;  206.341;  209.359;  208.168;-3.01792
 742.35;  202.571;  205.910;  203.225;-3.33897
 742.91;  216.748;  221.504;  219.878;-4.75602
 743.48;  201.150;  204.741;  203.324;-3.59007
 744.05;  195.484;  199.941;  196.786;-4.45612
 744.61;  202.988;  206.230;  204.593;-3.24118
 745.18;  185.324;  190.159;  187.125;-4.83423
 745.75;  198.305;  203.185;  201.497;-4.87928
 746.31;  227.327;  230.991;  230.891;-3.66333
 746.88;  197.093;  200.707;  200.522;-3.61338
 747.44;  197.801;  201.297;  201.675;-3.49544
 748.01;  226.542;  230.554;  231.329;-4.01149
 748.58;  207.203;  209.499;  213.293;-2.29554
 749.14;  200.354;  199.610;  226.526; 0.74441
 749.71;  242.759;  198.910;  451.231;43.84936
 750.28;  274.048;  205.722;  683.607;68.32630
 750.84;  260.491;  205.812;  549.218;54.67925
 751.41;  222.873;  193.709;  400.206;29.16420
 751.97;  215.984;  204.210;  287.792;11.77415
 752.54;  195.401;  198.148;  213.887;-2.74690
 753.11;  191.877;  194.676;  198.839;-2.79896
 753.67;  199.623;  205.044;  204.969;-5.42101
 754.24;  192.258;  197.777;  196.031;-5.51906
 754.80;  218.390;  223.433;  221.209;-5.04311
 755.37;  177.878;  181.025;  180.823;-3.14716
 755.93;  212.905;  215.711;  215.748;-2.80622
 756.50;  202.429;  206.490;  204.941;-4.06127
 757.07;  208.870;  211.860;  211.182;-2.98932
 757.63;  181.308;  184.709;  183.805;-3.40037
 758.20;  184.881;  189.259;  187.333;-4.37743
 758.76;  192.553;  197.024;  194.976;-4.47048
 759.33;  164.955;  167.743;  168.252;-2.78753
 759.89;  192.080;  194.521;  196.370;-2.44058
 760.46;  194.299;  198.034;  198.611;-3.73463
 761.02;  207.022;  210.179;  212.126;-3.15669
 761.59;  190.045;  192.068;  198.304;-2.02274
 762.15;  212.037;  208.611;  247.196; 3.42621
 762.72;  280.635;  193.498;  649.960;87.13716
 763.28;  372.827;  183.209; 1239.594;189.61811
 763.85;  322.400;  198.448;  891.355;123.95205
 764.41;  219.496;  202.891;  332.429;16.60500
 764.98;  208.082;  208.257;  229.754;-0.17505
 765.54;  203.592;  205.600;  213.852;-2.00810
 766.11;  198.679;  201.997;  202.867;-3.31815
 766.67;  174.659;  177.836;  178.359;-3.17721
 767.24;  200.775;  204.382;  202.687;-3.60726
 767.80;  189.855;  192.250;  191.715;-2.39531
 768.37;  187.481;  190.143;  189.443;-2.66236
 768.93;  186.457;  188.904;  189.093;-2.44741
 769.50;  195.796;  199.529;  198.465;-3.73347
 770.06;  186.333;  189.196;  190.397;-2.86352
 770.63;  193.360;  196.502;  199.082;-3.14157
 771.19;  195.359;  193.654;  227.151; 1.70538
 771.75;  233.173;  180.382;  467.412;52.79133
 772.32;  263.099;  183.304;  655.670;79.79527
 772.88;  236.310;  199.042;  430.088;37.26822
 773.45;  193.039;  190.442;  224.071; 2.59717
 774.01;  191.241;  194.143;  198.828;-2.90188
 774.58;  187.716;  191.283;  194.013;-3.56693
 775.14;  207.895;  211.771;  209.763;-3.87599
 775.70;  207.336;  211.245;  210.502;-3.90904
 776.27;  199.471;  203.449;  201.405;-3.97809
 776.83;  202.485;  206.935;  204.461;-4.45014
 777.40;  180.529;  185.146;  181.585;-4.61719
 777.96;  182.696;  186.562;  183.867;-3.86625
 778.52;  206.483;  211.924;  207.743;-5.44130
 779.09;  200.529;  205.139;  201.800;-4.61035
 779.65;  201.621;  206.596;  203.406;-4.97540
 780.22;  186.616;  191.477;  187.576;-4.86146
 780.78;  215.236;  219.545;  214.658;-4.30951
 781.34;  213.680;  217.448;  214.646;-3.76856
 781.91;  190.793;  195.823;  191.584;-5.03061
 782.47;  231.694;  236.677;  232.910;-4.98366
 783.03;  211.025;  215.245;  211.398;-4.22072
 783.60;  190.541;  194.822;  191.427;-4.28177
 784.16;  219.202;  222.448;  220.687;-3.24582
 784.72;  190.647;  195.975;  193.537;-5.32787
 785.29;  199.909;  204.757;  201.212;-4.84792
 785.85;  219.386;  224.009;  220.478;-4.62298
 786.41;  204.266;  208.712;  206.244;-4.44603
 786.98;  197.046;  200.760;  197.510;-3.71408
 787.54;  217.510;  222.384;  218.860;-4.87413
 788.10;  195.089;  199.111;  196.332;-4.02218
 788.67;  207.771;  213.399;  210.754;-5.62824
 789.23;  197.720;  202.297;  198.879;-4.57729
 789.79;  212.053;  215.844;  213.134;-3.79134
 790.36;  190.751;  194.272;  191.785;-3.52139
 790.92;  206.072;  209.568;  206.587;-3.49644
 791.48;  189.822;  194.686;  193.516;-4.86450
 792.05;  215.875;  219.769;  218.837;-3.89455
 792.61;  201.299;  204.998;  203.583;-3.69960
 793.17;  211.183;  213.991;  215.509;-2.80865
 793.73;  218.749;  216.065;  244.626; 2.68330
 794.30;  237.341;  211.749;  356.072;25.59124
 794.86;  251.636;  224.545;  393.666;27.09019
 795.42;  211.386;  204.638;  263.159; 6.74814
 795.98;  201.991;  205.454;  211.893;-3.46291
 796.55;  191.265;  194.789;  195.486;-3.52396
 797.11;  208.567;  213.428;  212.302;-4.86102
 797.67;  241.321;  245.488;  245.084;-4.16607
 798.23;  181.899;  185.231;  184.555;-3.33112
 798.80;  215.852;  218.683;  218.281;-2.83017
 799.36;  219.740;  220.889;  232.696;-1.14822
 799.92;  228.467;  214.271;  310.328;14.19672
 800.48;  252.314;  220.741;  413.728;31.57367
 801.05;  251.038;  216.793;  422.721;34.24562
 801.61;  235.205;  214.187;  353.586;21.01857
 802.17;  208.261;  205.839;  244.980; 2.42251
 802.73;  218.603;  220.825;  224.876;-2.22154
 803.29;  184.919;  187.075;  188.525;-2.15559
 803.86;  215.302;  217.860;  216.753;-2.55764
 804.42;  217.557;  221.799;  221.554;-4.24169
 804.98;  234.326;  237.586;  235.995;-3.25975
 805.54;  218.084;  221.901;  220.379;-3.81680
 806.10;  215.053;  219.192;  216.959;-4.13885
 806.66;  248.019;  250.873;  249.895;-2.85390
 807.23;  221.446;  225.518;  223.658;-4.07195
 807.79;  214.551;  218.095;  216.850;-3.54401
 808.35;  225.556;  228.273;  227.824;-2.71706
 808.91;  205.731;  209.176;  212.987;-3.44511
 809.47;  208.052;  198.950;  264.386; 9.10184
 810.03;  241.609;  211.783;  392.351;29.82579
 810.60;  288.329;  239.799;  507.373;48.52973
 811.16;  286.858;  204.523;  629.834;82.33568
 811.72;  303.770;  241.340;  583.026;62.43063
 812.28;  224.783;  211.331;  305.465;13.45258
 812.84;  230.231;  230.825;  245.167;-0.59347
 813.40;  240.261;  242.181;  247.112;-1.91953
 813.96;  228.379;  231.585;  235.064;-3.20558
 814.52;  226.508;  231.331;  230.727;-4.82263
 815.09;  214.992;  217.751;  217.536;-2.75868
 815.65;  229.715;  233.517;  230.944;-3.80173
 816.21;  221.216;  225.300;  222.389;-4.08379
 816.77;  226.681;  229.301;  225.660;-2.61984
 817.33;  221.380;  225.238;  222.182;-3.85789
 817.89;  217.943;  222.458;  219.820;-4.51494
 818.45;  250.999;  255.372;  252.643;-4.37299
 819.01;  229.364;  231.940;  231.281;-2.57605
 819.57;  224.843;  228.306;  224.944;-3.46310
 820.13;  222.081;  226.638;  224.373;-4.55715
 820.69;  241.056;  244.863;  243.814;-3.80720
 821.25;  219.524;  224.011;  220.494;-4.48726
 821.82;  209.826;  214.848;  212.805;-5.02231
 822.38;  229.796;  234.229;  231.349;-4.43336
 822.94;  231.619;  234.120;  232.561;-2.50141
 823.50;  227.435;  231.919;  228.708;-4.48446
 824.06;  227.078;  230.757;  230.499;-3.67952
 824.62;  218.981;  221.177;  223.250;-2.19557
 825.18;  257.796;  256.264;  282.566; 1.53238
 825.74;  249.810;  212.827;  403.395;36.98333
 826.30;  267.579;  213.028;  526.098;54.55128
 826.86;  241.836;  217.866;  384.641;23.97022
 827.42;  237.186;  235.818;  267.421; 1.36817
 827.98;  236.017;  239.046;  242.654;-3.02888
 828.54;  222.345;  225.289;  226.714;-2.94393
 829.10;  213.312;  217.202;  216.639;-3.88998
 829.66;  234.438;  237.921;  237.048;-3.48304
 830.22;  217.532;  222.018;  218.789;-4.48609
 830.78;  204.039;  208.527;  205.779;-4.48814
 831.34;  218.849;  223.362;  221.566;-4.51319
 831.90;  231.909;  236.138;  232.594;-4.22924
 832.46;  220.583;  223.782;  222.131;-3.19930
 833.02;  191.713;  197.083;  193.142;-5.37035
 833.58;  227.122;  230.115;  226.969;-2.99340
 834.14;  217.822;  220.476;  217.512;-2.65445
 834.70;  226.871;  231.332;  228.005;-4.46150
 835.25;  194.916;  199.977;  196.137;-5.06156
 835.81;  205.006;  209.255;  206.325;-4.24961
 836.37;  216.261;  219.946;  216.196;-3.68566
 836.93;  228.451;  231.834;  229.202;-3.38371
 837.49;  224.328;  228.320;  224.375;-3.99276
 838.05;  198.879;  204.064;  201.486;-5.18482
 838.61;  211.249;  215.408;  213.059;-4.15887
 839.17;  207.863;  211.379;  211.516;-3.51592
 839.73;  225.363;  221.396;  251.805; 3.96703
 840.29;  250.679;  228.435;  351.164;22.24398
 840.85;  228.332;  206.682;  347.146;21.64992
 841.41;  233.873;  218.037;  322.252;15.83587
 841.97;  253.082;  218.242;  411.688;34.83982
 842.52;  250.304;  217.246;  414.539;33.05777
 843.08;  210.096;  202.932;  272.665; 7.16371
 843.64;  206.036;  208.146;  219.877;-2.11034
 844.20;  215.446;  218.055;  219.792;-2.60939
 844.76;  225.325;  229.330;  227.489;-4.00544
 845.32;  181.925;  185.444;  182.083;-3.51949
 845.88;  210.254;  214.084;  212.597;-3.83055
 846.44;  220.448;  224.241;  221.439;-3.79360
 846.99;  231.703;  234.728;  234.014;-3.02565
 847.55;  211.271;  213.945;  211.176;-2.67470
 848.11;  181.453;  185.082;  184.253;-3.62975
 848.67;  209.135;  211.981;  209.677;-2.84681
 849.23;  185.455;  190.398;  187.354;-4.94286
 849.79;  206.870;  210.904;  207.754;-4.03391
 850.34;  214.648;  218.550;  217.249;-3.90196
 850.90;  187.718;  190.252;  198.598;-2.53401
 851.46;  235.259;  227.328;  284.448; 7.93193
 852.02;  237.852;  226.958;  310.051;10.89488
 852.58;  189.606;  185.919;  226.479; 3.68783
 853.13;  204.645;  205.795;  212.880;-1.14922
 853.69;  203.722;  209.143;  207.591;-5.42027
 854.25;  240.077;  244.233;  240.958;-4.15533
 854.81;  200.000;  204.708;  201.292;-4.70738
 855.37;  203.161;  208.307;  203.110;-5.14543
 855.92;  225.160;  229.252;  225.933;-4.09148
 856.48;  204.704;  208.377;  204.808;-3.67253
 857.04;  224.789;  228.688;  224.937;-3.89859
 857.60;  221.289;  226.150;  221.691;-4.86064
 858.16;  217.240;  221.937;  217.639;-4.69669
 858.71;  227.867;  231.243;  227.251;-3.37574
 859.27;  209.930;  214.382;  210.295;-4.45179
 859.83;  208.445;  213.217;  211.887;-4.77185
 860.39;  206.181;  211.025;  207.988;-4.84390
 860.94;  206.934;  211.447;  208.898;-4.51295
 861.50;  199.781;  204.777;  202.645;-4.99600
 862.06;  216.180;  220.290;  216.264;-4.11005
 862.61;  214.636;  219.647;  216.371;-5.01111
 863.17;  186.925;  190.978;  187.515;-4.05316
 863.73;  221.809;  225.883;  223.272;-4.07421
 864.29;  211.336;  215.231;  211.240;-3.89526
 864.84;  219.960;  223.541;  219.672;-3.58032
 865.40;  218.188;  221.994;  219.038;-3.80537
 865.96;  204.126;  207.350;  208.804;-3.22342
 866.51;  212.085;  214.031;  222.897;-1.94547
 867.07;  221.547;  224.850;  228.737;-3.30252
 867.63;  233.697;  238.737;  236.493;-5.03958
 868.18;  228.403;  232.868;  229.520;-4.46463
 868.74;  228.610;  233.738;  230.043;-5.12768
 869.30;  212.350;  217.828;  213.752;-5.47773
 869.86;  199.157;  204.089;  201.508;-4.93178
 870.41;  236.726;  240.623;  237.917;-3.89684
 870.97;  210.306;  213.714;  209.444;-3.40789
 871.52;  213.149;  217.067;  212.542;-3.91794
 872.08;  234.383;  238.127;  235.584;-3.74399
 872.64;  217.380;  221.349;  218.988;-3.96904
 873.19;  194.836;  199.040;  195.874;-4.20410
 873.75;  208.446;  212.121;  209.072;-3.67515
 874.31;  202.947;  207.322;  203.565;-4.37520
 874.86;  225.434;  230.177;  226.270;-4.74320
 875.42;  236.046;  240.846;  237.359;-4.80020
 875.98;  216.843;  222.242;  218.238;-5.39920
 876.53;  217.096;  222.295;  218.441;-5.19920
 877.09;  234.769;  241.741;  237.172;-6.97220
 877.64;  218.125;  222.889;  219.847;-4.76420
 878.20;  215.664;  219.631;  217.135;-3.96720
 878.76;  229.053;  233.231;  230.433;-4.17820
 879.31;  190.089;  194.131;  191.037;-4.04220
 879.87;  225.079;  228.032;  225.200;-2.95320
 880.42;  217.496;  221.918;  218.426;-4.42220
 880.98;  206.907;  210.557;  206.335;-3.65020
 881.54;  239.845;  243.424;  239.657;-3.57920
 882.09;  215.756;  220.116;  217.616;-4.36020
 882.65;  233.828;  237.168;  233.592;-3.34020
 883.20;  227.220;  231.489;  227.445;-4.26920
 883.76;  228.430;  233.743;  229.491;-5.31320
 884.31;  222.281;  226.603;  222.772;-4.32220
 884.87;  251.714;  256.524;  252.670;-4.81020
 885.42;  213.967;  219.318;  214.634;-5.35120
 885.98;  201.991;  206.523;  203.171;-4.53220
 886.53;  221.599;  226.290;  221.606;-4.69120
 887.09;  232.314;  237.940;  233.277;-5.62620
 887.65;  224.596;  229.196;  227.075;-4.60020
 888.20;  218.094;  223.925;  219.081;-5.83120
 888.76;  216.174;  220.715;  216.553;-4.54120
 889.31;  227.069;  230.708;  227.063;-3.63920
 889.87;  226.836;  230.738;  226.933;-3.90220
 890.42;  218.572;  222.643;  219.404;-4.07120
 890.98;  224.014;  229.285;  224.217;-5.27120
 891.53;  197.502;  201.177;  198.956;-3.67520
 892.09;  234.015;  238.930;  233.343;-4.91520
 892.64;  215.541;  220.890;  217.915;-5.34920
 893.19;  219.888;  225.413;  221.488;-5.52520
 893.75;  205.844;  210.257;  206.559;-4.41320
 894.30;  235.430;  240.083;  236.042;-4.65320
 894.86;  204.219;  208.500;  205.145;-4.28120
 895.41;  242.741;  246.450;  242.484;-3.70920
 895.97;  206.108;  210.036;  207.451;-3.92820
 896.52;  241.769;  246.870;  244.098;-5.10120
 897.08;  224.864;  229.928;  227.097;-5.06420
 897.63;  241.779;  246.046;  242.463;-4.26720
 898.19;  222.650;  226.919;  221.941;-4.26920
 898.74;  242.299;  247.075;  241.964;-4.77620
 899.29;  240.297;  245.273;  241.423;-4.97620
 899.85;  217.337;  221.740;  217.840;-4.40320
 900.40;  222.431;  226.652;  224.623;-4.22120
 900.96;  225.546;  228.804;  224.386;-3.25820
 901.51;  221.611;  226.461;  221.344;-4.85020
 902.06;  224.698;  229.154;  225.298;-4.45620
 902.62;  235.524;  240.257;  235.915;-4.73320
 903.17;  231.129;  235.968;  232.176;-4.83920
 903.73;  234.072;  237.288;  235.707;-3.21620
 904.28;  216.659;  221.110;  216.385;-4.45120
 904.83;  248.963;  252.668;  249.126;-3.70520
 905.39;  201.324;  206.849;  202.872;-5.52520
 905.94;  228.453;  232.762;  229.504;-4.30920
 906.50;  237.655;  242.708;  239.323;-5.05320
 907.05;  219.235;  223.208;  219.363;-3.97320
 907.60;  236.177;  240.532;  236.963;-4.35520
 908.16;  226.132;  230.390;  228.085;-4.25820
 908.71;  228.748;  232.919;  229.913;-4.17120
 909.26;  232.265;  236.041;  233.397;-3.77620
 909.82;  224.927;  228.579;  227.376;-3.65220
 910.37;  230.053;  232.106;  235.399;-2.05320
 910.92;  247.763;  242.182;  281.745; 5.58080
 911.48;  290.618;  240.046;  481.890;50.57180
 912.03;  285.755;  213.506;  613.633;72.24880
 912.58;  267.588;  230.910;  476.373;36.67780
 913.14;  240.729;  236.834;  301.799; 3.89480
 913.69;  256.516;  259.090;  269.488;-2.57420
 914.24;  216.731;  219.311;  222.219;-2.58020
 914.79;  216.106;  219.736;  218.365;-3.63020
 915.35;  231.810;  236.230;  234.392;-4.42020
 915.90;  238.178;  242.465;  240.487;-4.28720
 916.45;  217.167;  221.242;  218.208;-4.07520
 917.01;  231.494;  237.045;  232.894;-5.55120
 917.56;  226.476;  230.356;  227.311;-3.88020
 918.11;  224.816;  229.497;  226.003;-4.68120
 918.66;  221.402;  224.129;  220.789;-2.72720
 919.22;  234.903;  240.044;  236.207;-5.14120
 919.77;  218.592;  223.635;  221.133;-5.04320
 920.32;  223.197;  227.047;  224.244;-3.85020
 920.87;  230.063;  232.274;  232.864;-2.21120
 921.43;  227.184;  225.202;  250.486; 1.98180
 921.98;  221.425;  213.204;  276.799; 8.22080
 922.53;  222.031;  217.440;  271.522; 4.59080
 923.08;  227.060;  228.020;  245.586;-0.96020
 923.64;  225.269;  229.200;  232.794;-3.93120
 924.19;  228.806;  233.323;  231.064;-4.51720
 924.74;  208.175;  212.539;  211.372;-4.36420
 925.29;  258.267;  262.397;  260.667;-4.13020
 925.84;  232.911;  237.061;  234.899;-4.15020
 926.40;  212.053;  216.508;  212.506;-4.45520
 926.95;  213.875;  218.243;  214.402;-4.36820
 927.50;  215.198;  219.375;  216.696;-4.17720
 928.05;  226.379;  229.965;  226.066;-3.58620
 928.60;  210.923;  215.523;  210.903;-4.60020
 929.15;  227.870;  230.880;  228.948;-3.01020
 929.71;  238.750;  242.676;  238.862;-3.92620
 930.26;  218.675;  222.682;  220.145;-4.00720
 930.81;  225.538;  229.181;  226.373;-3.64320
 931.36;  234.881;  239.031;  235.832;-4.15020
 931.91;  240.902;  245.393;  241.662;-4.49120
 932.46;  237.455;  241.385;  237.655;-3.93020
 933.02;  224.170;  227.525;  224.869;-3.35520
 933.57;  211.706;  215.460;  211.497;-3.75420
 934.12;  211.954;  215.440;  212.075;-3.48620
 934.67;  227.496;  232.845;  232.336;-5.34920
 935.22;  220.446;  224.509;  225.680;-4.06320
 935.77;  245.170;  250.605;  247.265;-5.43520
 936.32;  231.497;  236.352;  233.242;-4.85520
 936.87;  233.437;  238.464;  234.404;-5.02720
 937.42;  228.290;  233.718;  230.149;-5.42820
 937.98;  209.285;  213.547;  211.733;-4.26220
 938.53;  221.214;  226.826;  221.566;-5.61220
 939.08;  211.222;  216.235;  213.091;-5.01320
 939.63;  233.781;  238.121;  233.627;-4.34020
 940.18;  244.378;  248.052;  245.398;-3.67420
 940.73;  222.970;  226.755;  224.525;-3.78520
 941.28;  209.550;  213.214;  210.218;-3.66420
 941.83;  216.343;  222.208;  218.300;-5.86520
 942.38;  213.884;  216.460;  212.832;-2.57620
 942.93;  228.314;  232.922;  228.633;-4.60820
 943.48;  226.817;  231.096;  227.078;-4.27920
 944.03;  209.453;  214.050;  210.439;-4.59720
 944.58;  216.165;  219.135;  217.194;-2.97020
 945.13;  212.249;  216.153;  212.387;-3.90420
 945.68;  205.342;  208.540;  206.217;-3.19820
 946.23;  213.241;  217.670;  213.880;-4.42920
 946.79;  214.138;  217.395;  214.171;-3.25720
 947.34;  233.418;  237.428;  232.911;-4.01020
 947.89;  237.296;  241.466;  238.836;-4.17020
 948.44;  216.991;  222.454;  219.284;-5.46320
 948.99;  216.451;  220.752;  216.924;-4.30120
 949.54;  231.338;  234.806;  230.186;-3.46820
 950.09;  214.602;  219.000;  216.219;-4.39820
 950.64;  213.975;  217.469;  213.164;-3.49420
 951.19;  193.620;  199.464;  195.816;-5.84420
 951.73;  185.154;  191.189;  187.208;-6.03520
 952.28;  229.026;  233.343;  230.870;-4.31720
 952.83;  222.906;  226.795;  222.726;-3.88920
 953.38;  242.737;  247.102;  243.581;-4.36520
 953.93;  216.661;  220.679;  216.650;-4.01820
 954.48;  217.790;  222.478;  219.371;-4.68820
 955.03;  221.344;  226.571;  222.641;-5.22720
 955.58;  220.548;  224.673;  220.638;-4.12520
 956.13;  191.655;  196.209;  192.119;-4.55420
 956.68;  202.465;  207.758;  204.813;-5.29320
 957.23;  190.430;  195.082;  190.369;-4.65220
 957.78;  204.175;  207.891;  204.342;-3.71620
 958.33;  183.656;  187.886;  184.908;-4.23020
 958.88;  212.941;  216.637;  214.074;-3.69620
 959.43;  218.754;  223.071;  220.660;-4.31720
 959.98;  206.775;  210.963;  207.110;-4.18820
 960.53;  236.141;  241.196;  235.735;-5.05520
 961.07;  205.303;  210.595;  205.337;-5.29220
 961.62;  250.094;  253.181;  250.070;-3.08720
 962.17;  213.565;  217.605;  213.949;-4.04020
 962.72;  216.472;  222.456;  217.978;-5.98420
 963.27;  217.566;  221.585;  218.272;-4.01920
 963.82;  205.408;  209.494;  207.269;-4.08620
 964.37;  230.409;  231.135;  240.124;-0.72620
 964.92;  219.336;  212.368;  264.450; 6.96780
 965.46;  210.717;  201.226;  280.889; 9.49080
 966.01;  216.581;  214.365;  262.804; 2.21580
 966.56;  223.732;  227.062;  237.515;-3.33020
 967.11;  225.331;  228.344;  227.550;-3.01320
 967.66;  210.751;  215.327;  213.586;-4.57620
 968.21;  206.411;  210.560;  208.194;-4.14920
 968.75;  224.985;  229.508;  224.204;-4.52320
 969.30;  215.392;  219.654;  216.833;-4.26220
 969.85;  233.032;  238.621;  233.361;-5.58920
 970.40;  221.945;  226.471;  220.821;-4.52620
 970.95;  225.425;  230.410;  226.071;-4.98520
 971.50;  222.637;  226.693;  223.994;-4.05620
 972.04;  223.795;  228.668;  225.460;-4.87320
 972.59;  233.020;  237.900;  233.089;-4.88020
 973.14;  226.069;  230.143;  226.225;-4.07420
 973.69;  235.083;  239.779;  235.642;-4.69620
 974.24;  219.952;  224.362;  220.206;-4.41020
 974.78;  215.029;  219.900;  215.873;-4.87120
 975.33;  244.688;  249.893;  245.834;-5.20520
 975.88;  228.981;  234.224;  229.422;-5.24320
 976.43;  226.629;  231.270;  227.200;-4.64120
 976.97;  221.010;  225.476;  220.970;-4.46620
 977.52;  210.081;  213.921;  212.176;-3.84020
 978.07;  255.978;  259.339;  261.140;-3.36120
 978.62;  245.404;  250.695;  249.999;-5.29120
 979.16;  242.720;  247.323;  245.899;-4.60320
 979.71;  210.874;  214.525;  211.338;-3.65120
 980.26;  231.751;  236.525;  233.353;-4.77420
 980.81;  230.446;  235.423;  230.718;-4.97720
 981.35;  253.801;  257.470;  254.809;-3.66920
 981.90;  243.101;  247.220;  241.517;-4.11920
 982.45;  238.244;  244.110;  240.405;-5.86620
 982.99;  241.681;  246.699;  242.664;-5.01820
 983.54;  240.065;  244.785;  239.293;-4.72020
 984.09;  231.116;  235.596;  231.355;-4.48020
 984.63;  228.265;  232.859;  228.448;-4.59420
 985.18;  242.254;  245.675;  242.377;-3.42120
 985.73;  235.664;  240.310;  235.860;-4.64620
 986.27;  225.036;  229.021;  224.967;-3.98520
 986.82;  233.286;  236.714;  233.190;-3.42820
 987.37;  247.147;  252.461;  246.808;-5.31420
 987.91;  236.973;  242.035;  236.652;-5.06220
 988.46;  245.564;  250.907;  247.721;-5.34320
 989.01;  238.142;  243.046;  237.572;-4.90420
 989.55;  240.762;  245.620;  241.214;-4.85820
 990.10;  247.303;  252.758;  248.030;-5.45520
 990.65;  262.314;  267.722;  262.831;-5.40820
 991.19;  235.501;  240.603;  236.217;-5.10220
 991.74;  255.116;  258.469;  254.016;-3.35320
 992.29;  242.427;  247.749;  243.190;-5.32220
 992.83;  254.366;  259.957;  254.085;-5.59120
 993.38;  248.971;  253.418;  247.359;-4.44720
 993.92;  228.144;  231.532;  226.472;-3.38820
 994.47;  216.828;  221.206;  216.807;-4.37820
 995.02;  236.570;  240.940;  236.735;-4.37020
 995.56;  255.282;  261.084;  256.692;-5.80220
 996.11;  245.316;  250.205;  246.882;-4.88920
 996.65;  247.558;  251.539;  247.876;-3.98120
 997.20;  240.569;  246.573;  240.294;-6.00420
 997.75;  239.466;  244.305;  239.437;-4.83920
 998.29;  214.925;  220.107;  216.133;-5.18220
 998.84;  244.556;  250.724;  245.329;-6.16820
 999.38;  245.923;  250.042;  244.812;-4.11920
 999.93;  261.675;  267.209;  261.675;-5.53420
1000.47;  260.172;  264.324;  260.831;-4.15220
1001.02;  253.583;  257.092;  253.386;-3.50920
1001.56;  240.773;  244.824;  239.780;-4.05120
1002.11;  230.965;  234.738;  230.445;-3.77320
1002.65;  223.868;  228.565;  223.243;-4.69720
1003.20;  231.401;  237.052;  231.881;-5.65120
1003.75;  265.567;  269.606;  266.036;-4.03920
1004.29;  232.431;  238.538;  233.303;-6.10720
1004.84;  219.163;  223.671;  220.546;-4.50820
1005.38;  221.503;  227.224;  222.859;-5.72120
1005.93;  239.957;  246.906;  241.364;-6.94920
1006.47;  219.960;  224.462;  220.692;-4.50220
1007.02;  227.169;  231.833;  227.662;-4.66420
1007.56;  243.318;  247.433;  242.798;-4.11520
1008.11;  248.706;  252.720;  249.411;-4.01420
1008.65;  206.566;  212.672;  207.079;-6.10620
1009.19;  235.989;  240.140;  236.390;-4.15120
1009.74;  231.002;  236.623;  231.223;-5.62120
1010.28;  233.569;  238.127;  234.215;-4.55820
1010.83;  242.703;  246.572;  242.437;-3.86920
1011.37;  235.519;  240.282;  235.037;-4.76320
1011.92;  233.800;  238.095;  235.208;-4.29520
1012.46;  228.278;  231.437;  230.410;-3.15920
1013.01;  270.620;  267.813;  282.128; 2.80680
1013.55;  243.862;  236.714;  261.377; 7.14780
1014.09;  233.653;  232.679;  247.080; 0.97380
1014.64;  229.585;  232.536;  235.199;-2.95120
1015.18;  225.004;  228.881;  226.875;-3.87720
1015.73;  219.420;  223.733;  221.345;-4.31320
1016.27;  240.321;  244.244;  239.850;-3.92320
1016.82;  231.874;  237.116;  232.899;-5.24220
1017.36;  225.218;  228.573;  224.463;-3.35520
1017.90;  214.456;  219.031;  214.821;-4.57520
1018.45;  208.649;  215.172;  209.010;-6.52320
1018.99;  210.964;  214.070;  213.271;-3.10620
1019.53;  199.851;  203.228;  199.948;-3.37720
1020.08;  227.254;  230.973;  227.485;-3.71920
1020.62;  228.343;  232.690;  229.827;-4.34720
1021.17;  232.923;  236.888;  232.392;-3.96520
1021.71;  231.444;  236.822;  232.866;-5.37820
1022.25;  239.833;  244.782;  239.904;-4.94920
1022.80;  212.926;  218.831;  214.907;-5.90520
1023.34;  209.957;  216.610;  211.512;-6.65320
1023.88;  224.701;  231.207;  224.103;-6.50620
1024.43;  229.089;  232.772;  229.391;-3.68320
1024.97;  232.353;  237.512;  233.233;-5.15920
1025.51;  212.422;  216.658;  213.395;-4.23620
1026.06;  227.889;  232.703;  227.836;-4.81420
1026.60;  232.985;  236.932;  233.723;-3.94720
1027.14;  245.038;  249.520;  244.366;-4.48220
1027.69;  233.075;  237.157;  232.097;-4.08220
1028.23;  227.014;  231.829;  228.253;-4.81520
1028.77;  212.518;  216.286;  212.300;-3.76820
1029.31;  224.134;  228.645;  224.128;-4.51120
1029.86;  217.239;  220.976;  216.083;-3.73720
1030.40;  262.145;  266.957;  262.077;-4.81220
1030.94;  231.804;  235.602;  232.446;-3.79820
1031.48;  240.613;  244.798;  240.883;-4.18520
1032.03;  228.207;  232.974;  227.501;-4.76720
1032.57;  229.425;  233.237;  229.752;-3.81220
1033.11;  225.124;  229.291;  224.720;-4.16720
1033.65;  214.688;  218.770;  213.877;-4.08220
1034.20;  234.204;  239.433;  235.433;-5.22920
1034.74;  231.841;  237.444;  231.019;-5.60320
1035.28;  230.237;  235.133;  231.832;-4.89620
1035.82;  208.816;  212.102;  209.377;-3.28620
1036.37;  221.199;  227.358;  221.872;-6.15920
1036.91;  247.166;  252.225;  248.405;-5.05920
1037.45;  238.137;  242.746;  237.398;-4.60920
1037.99;  227.950;  232.628;  227.965;-4.67820
1038.53;  228.918;  233.175;  229.202;-4.25720
1039.08;  216.438;  221.923;  217.129;-5.48520
1039.62;  216.682;  221.811;  215.711;-5.12920
1040.16;  221.223;  225.614;  220.940;-4.39120
1040.70;  226.590;  231.381;  226.788;-4.79120
1041.24;  243.143;  247.323;  243.321;-4.18020
1041.79;  217.011;  221.850;  217.096;-4.83920
1042.33;  223.217;  228.640;  223.935;-5.42320
1042.87;  217.514;  221.520;  216.620;-4.00620
1043.41;  222.716;  227.631;  221.794;-4.91520
1043.95;  234.520;  238.994;  234.674;-4.47420
1044.49;  202.799;  207.804;  204.268;-5.00520
1045.04;  233.899;  238.040;  234.685;-4.14120
1045.58;  225.503;  230.631;  225.050;-5.12820
1046.12;  257.453;  261.397;  256.429;-3.94420
1046.66;  236.707;  241.752;  239.465;-5.04520
1047.20;  217.845;  222.346;  220.647;-4.50120
1047.74;  253.706;  257.442;  252.264;-3.73620
1048.28;  233.214;  237.555;  234.715;-4.34120
1048.82;  248.859;  254.263;  249.899;-5.40420
1049.36;  252.559;  257.431;  252.537;-4.87220
1049.91;  241.205;  244.699;  240.839;-3.49420
1050.45;  232.842;  237.715;  233.443;-4.87320
1050.99;  252.005;  257.972;  253.565;-5.96720
1051.53;  257.662;  261.630;  258.198;-3.96820
1052.07;  230.777;  235.932;  231.546;-5.15520
1052.61;  231.824;  237.559;  231.951;-5.73520
1053.15;  242.529;  247.051;  242.976;-4.52220
1053.69;  234.636;  239.441;  236.380;-4.80520
1054.23;  240.523;  245.890;  241.171;-5.36720
1054.77;  256.441;  260.772;  255.399;-4.33120
1055.31;  239.357;  244.026;  239.084;-4.66920
1055.85;  231.055;  236.281;  232.209;-5.22620
1056.39;  232.529;  236.749;  231.936;-4.22020
1056.93;  241.249;  245.006;  240.459;-3.75720
1057.47;  249.949;  255.638;  250.912;-5.68920
1058.01;  248.366;  253.134;  248.715;-4.76820
1058.55;  244.686;  250.173;  246.950;-5.48720
1059.09;  246.370;  250.724;  246.105;-4.35420
1059.63;  254.383;  258.518;  252.957;-4.13520
1060.17;  266.111;  271.402;  266.822;-5.29120
1060.71;  231.568;  236.022;  231.876;-4.45420
1061.25;  243.445;  248.550;  243.753;-5.10520
1061.79;  243.631;  249.245;  243.820;-5.61420
1062.33;  237.173;  241.609;  237.818;-4.43620
1062.87;  267.674;  272.206;  267.178;-4.53220
1063.41;  246.223;  250.170;  245.913;-3.94720
1063.95;  252.425;  257.994;  253.445;-5.56920
1064.49;  233.689;  238.396;  236.618;-4.70720
1065.03;  291.841;  296.704;  291.184;-4.86320
1065.57;  264.815;  270.216;  263.442;-5.40120
1066.11;  246.903;  250.404;  245.700;-3.50120
1066.65;  243.202;  247.966;  242.225;-4.76420
1067.19;  259.497;  264.328;  258.730;-4.83120
1067.73;  267.742;  272.864;  267.504;-5.12220
1068.27;  236.978;  242.198;  236.573;-5.22020
1068.81;  242.520;  248.219;  242.997;-5.69920
1069.35;  267.728;  272.494;  267.481;-4.76620
1069.89;  235.569;  239.494;  234.383;-3.92520
1070.43;  260.293;  263.514;  259.943;-3.22120
1070.96;  255.027;  261.175;  254.939;-6.14820
1071.50;  254.323;  259.205;  253.966;-4.88220
1072.04;  249.649;  254.928;  249.432;-5.27920
1072.58;  255.982;  260.967;  255.917;-4.98520
1073.12;  267.218;  270.697;  266.714;-3.47920
1073.66;  237.894;  242.694;  237.410;-4.80020
1074.20;  245.979;  250.650;  248.196;-4.67120
1074.74;  254.305;  258.221;  253.551;-3.91620
1075.27;  242.776;  246.118;  243.897;-3.34220
1075.81;  243.504;  247.862;  243.029;-4.35820
1076.35;  250.611;  254.689;  249.120;-4.07820
1076.89;  252.064;  256.565;  251.325;-4.50120
1077.43;  267.404;  272.947;  267.999;-5.54320
1077.97;  255.592;  260.391;  256.720;-4.79920
1078.50;  252.833;  258.435;  252.985;-5.60220
1079.04;  244.316;  248.393;  242.128;-4.07720
1079.58;  249.773;  254.955;  249.444;-5.18220
1080.12;  245.426;  250.083;  245.012;-4.65720
1080.66;  260.499;  266.546;  260.419;-6.04720
1081.20;  238.474;  244.011;  239.541;-5.53720
1081.73;  234.345;  239.497;  233.654;-5.15220
1082.27;  253.561;  260.170;  252.998;-6.60920
1082.81;  256.239;  262.334;  257.378;-6.09520
1083.35;  248.416;  253.962;  248.599;-5.54620
1083.88;  248.618;  254.193;  248.179;-5.57520
1084.42;  265.443;  268.895;  265.394;-3.45220
1084.96;  242.255;  245.945;  241.314;-3.69020
1085.50;  251.005;  254.803;  249.738;-3.79820
1086.04;  247.747;  250.790;  246.985;-3.04320
1086.57;  271.195;  277.019;  271.691;-5.82420
1087.11;  249.718;  253.851;  249.705;-4.13320
1087.65;  239.607;  245.599;  240.281;-5.99220
1088.19;  264.452;  268.889;  264.683;-4.43720
1088.72;  248.652;  252.668;  249.220;-4.01620
1089.26;  241.216;  246.426;  240.830;-5.21020
1089.80;  234.833;  239.921;  235.334;-5.08820
1090.33;  272.233;  277.901;  273.528;-5.66820
1090.87;  228.612;  233.943;  227.543;-5.33120
1091.41;  233.123;  238.609;  233.488;-5.48620
1091.95;  250.441;  256.121;  250.943;-5.68020
1092.48;  262.675;  268.358;  263.655;-5.68320
1093.02;  235.871;  240.535;  235.415;-4.66420
1093.56;  254.781;  259.101;  254.412;-4.32020
1094.09;  229.400;  234.847;  229.661;-5.44720
1094.63;  231.019;  235.308;  230.537;-4.28920
1095.17;  236.175;  241.362;  236.861;-5.18720
1095.70;  251.131;  255.838;  250.037;-4.70720
1096.24;  236.676;  242.660;  237.502;-5.98420
1096.78;  234.395;  239.928;  234.609;-5.53320
1097.31;  237.667;  242.207;  237.279;-4.54020
1097.85;  244.382;  248.544;  243.933;-4.16220
1098.39;  227.952;  232.669;  227.157;-4.71720
1098.92;  242.087;  246.951;  243.537;-4.86420
1099.46;  249.400;  254.286;  249.128;-4.88620
1099.99;  238.669;  244.255;  239.172;-5.58620
1100.53;  245.358;  249.382;  244.501;-4.02420

