
Integration time [ms]:   0.100
Averaging Nr. [scans]: 1000
Smoothing Nr. [pixels]: 0
Data measured with spectrometer [name]: 7213323SP
Wave   ;Sample   ;Dark     ;Reference;Scope Corrected for Dark
[nm]   ;[counts] ;[counts] ;[counts] ;[counts] 

 175.65;  185.711;  180.919;  180.414; 4.79188
 176.25;  205.552;  200.771;  201.051; 4.78060
 176.85;  203.133;  198.074;  197.041; 5.05890
 177.45;  204.140;  199.398;  199.894; 4.74196
 178.05;  193.830;  191.085;  190.085; 2.74485
 178.65;  192.855;  189.686;  189.195; 3.16920
 179.25;  189.069;  185.439;  186.282; 3.63040
 179.85;  197.410;  193.332;  191.669; 4.07812
 180.45;  187.491;  184.832;  185.031; 2.65900
 181.05;  230.216;  226.307;  226.588; 3.90956
 181.65;  190.764;  187.039;  188.083; 3.72526
 182.25;  212.055;  207.692;  206.883; 4.36313
 182.86;  207.690;  204.005;  202.121; 3.68465
 183.46;  205.147;  202.367;  200.708; 2.77936
 184.06;  187.079;  184.141;  185.033; 2.93780
 184.66;  169.449;  166.129;  164.643; 3.32017
 185.26;  211.013;  208.305;  214.998; 2.70789
 185.86;  193.987;  189.907;  191.880; 4.07978
 186.46;  214.401;  210.353;  211.614; 4.04756
 187.06;  196.438;  192.861;  194.406; 3.57698
 187.66;  217.571;  215.591;  216.525; 1.97946
 188.26;  223.828;  219.979;  220.940; 3.84928
 188.86;  202.350;  200.952;  200.640; 1.39751
 189.46;  199.274;  196.104;  198.052; 3.17088
 190.06;  190.711;  186.631;  188.358; 4.08063
 190.66;  196.434;  192.343;  194.493; 4.09053
 191.26;  212.754;  210.484;  212.779; 2.27067
 191.86;  209.641;  206.545;  207.622; 3.09612
 192.46;  208.912;  204.911;  206.770; 4.00169
 193.06;  209.603;  206.281;  207.841; 3.32205
 193.66;  199.806;  196.673;  199.942; 3.13308
 194.26;  217.010;  214.002;  218.472; 3.00830
 194.86;  184.203;  181.785;  184.097; 2.41825
 195.46;  191.991;  189.136;  189.176; 2.85505
 196.06;  204.359;  202.019;  202.533; 2.33976
 196.66;  183.319;  179.580;  181.286; 3.73925
 197.26;  181.705;  178.678;  180.080; 3.02766
 197.86;  212.501;  208.508;  210.197; 3.99280
 198.46;  180.981;  177.168;  179.072; 3.81244
 199.06;  207.858;  204.760;  206.441; 3.09887
 199.66;  197.324;  193.588;  194.867; 3.73685
 200.26;  186.189;  182.810;  185.670; 3.37851
 200.85;  204.972;  200.569;  202.080; 4.40293
 201.45;  195.345;  193.142;  195.434; 2.20274
 202.05;  196.827;  193.539;  195.645; 3.28878
 202.65;  191.913;  188.779;  189.896; 3.13410
 203.25;  182.942;  179.750;  181.206; 3.19261
 203.85;  196.746;  193.742;  195.949; 3.00352
 204.45;  225.315;  223.319;  226.293; 1.99596
 205.05;  171.608;  168.522;  170.599; 3.08576
 205.65;  178.772;  176.045;  177.581; 2.72673
 206.25;  205.701;  202.882;  205.331; 2.81869
 206.85;  185.442;  180.907;  183.435; 4.53492
 207.45;  192.728;  189.768;  191.637; 2.96039
 208.05;  181.276;  177.930;  180.242; 3.34573
 208.65;  182.867;  179.849;  182.976; 3.01753
 209.25;  176.328;  173.287;  174.426; 3.04042
 209.84;  204.291;  202.179;  203.273; 2.11228
 210.44;  185.510;  182.224;  184.524; 3.28589
 211.04;  219.567;  216.133;  219.523; 3.43428
 211.64;  186.504;  182.315;  184.227; 4.18947
 212.24;  197.248;  193.615;  196.408; 3.63271
 212.84;  192.702;  188.539;  191.061; 4.16308
 213.44;  179.940;  175.962;  179.735; 3.97778
 214.04;  179.035;  174.930;  178.889; 4.10469
 214.64;  196.172;  192.531;  196.183; 3.64078
 215.24;  176.116;  172.409;  175.860; 3.70709
 215.83;  196.689;  194.541;  195.308; 2.14825
 216.43;  164.594;  162.022;  164.475; 2.57260
 217.03;  172.961;  169.678;  173.835; 3.28308
 217.63;  176.998;  174.214;  178.008; 2.78478
 218.23;  187.435;  184.270;  187.688; 3.16512
 218.83;  179.247;  175.814;  179.547; 3.43360
 219.43;  176.268;  173.026;  177.218; 3.24187
 220.03;  168.522;  164.787;  168.913; 3.73462
 220.62;  173.827;  170.551;  174.999; 3.27601
 221.22;  185.018;  181.366;  185.496; 3.65218
 221.82;  188.913;  186.418;  189.660; 2.49503
 222.42;  167.120;  164.503;  168.935; 2.61642
 223.02;  181.302;  177.713;  182.327; 3.58952
 223.62;  171.943;  167.507;  175.421; 4.43639
 224.22;  191.921;  187.944;  195.708; 3.97735
 224.81;  185.800;  181.577;  190.209; 4.22319
 225.41;  183.888;  179.759;  189.807; 4.12892
 226.01;  170.610;  166.718;  175.050; 3.89230
 226.61;  173.849;  169.448;  178.854; 4.40177
 227.21;  172.972;  168.681;  178.313; 4.29116
 227.81;  197.827;  194.556;  205.112; 3.27084
 228.40;  166.583;  162.267;  172.708; 4.31670
 229.00;  173.761;  170.117;  181.048; 3.64373
 229.60;  175.747;  173.806;  183.766; 1.94103
 230.20;  201.671;  198.141;  211.512; 3.53028
 230.80;  162.737;  159.033;  172.378; 3.70468
 231.39;  159.256;  156.077;  169.722; 3.17872
 231.99;  177.359;  174.254;  189.251; 3.10509
 232.59;  203.216;  200.302;  217.599; 2.91426
 233.19;  173.337;  170.157;  188.513; 3.17932
 233.79;  185.588;  183.263;  202.434; 2.32537
 234.38;  171.963;  167.956;  190.099; 4.00684
 234.98;  177.958;  173.599;  196.074; 4.35891
 235.58;  180.716;  177.265;  201.586; 3.45190
 236.18;  192.427;  188.653;  212.456; 3.77383
 236.78;  180.960;  176.653;  202.247; 4.30653
 237.37;  193.556;  188.880;  218.441; 4.67624
 237.97;  196.133;  193.095;  224.600; 3.03878
 238.57;  196.675;  194.206;  226.967; 2.46885
 239.17;  167.714;  164.346;  198.792; 3.36794
 239.76;  187.456;  183.664;  220.862; 3.79228
 240.36;  175.861;  172.105;  212.675; 3.75547
 240.96;  204.632;  201.269;  243.349; 3.36299
 241.56;  172.335;  170.013;  211.808; 2.32171
 242.15;  179.642;  175.926;  223.065; 3.71564
 242.75;  199.049;  194.651;  246.418; 4.39816
 243.35;  176.234;  172.579;  226.927; 3.65508
 243.95;  186.771;  183.389;  243.754; 3.38219
 244.54;  200.742;  197.162;  259.178; 3.58029
 245.14;  195.085;  190.255;  258.872; 4.82990
 245.74;  211.957;  208.147;  280.750; 3.80923
 246.34;  182.932;  179.384;  260.989; 3.54794
 246.93;  198.273;  194.540;  283.881; 3.73292
 247.53;  152.968;  150.490;  263.537; 2.47739
 248.13;  191.932;  189.377;  330.762; 2.55497
 248.73;  181.519;  177.307;  312.884; 4.21171
 249.32;  185.465;  182.365;  307.340; 3.09939
 249.92;  173.971;  171.068;  313.021; 2.90287
 250.52;  190.825;  187.482;  364.988; 3.34390
 251.11;  191.966;  188.366;  413.921; 3.60058
 251.71;  206.193;  203.136;  535.383; 3.05731
 252.31;  163.305;  160.999; 1116.602; 2.30533
 252.91;  187.740;  184.060;12306.623; 3.67960
 253.50;  155.386;  152.327;38070.578; 3.05869
 254.10;  197.058;  193.074;33115.004; 3.98405
 254.70;  166.933;  162.164; 7397.543; 4.76889
 255.29;  201.629;  198.845;  779.898; 2.78483
 255.89;  184.728;  182.038;  427.893; 2.68987
 256.49;  168.062;  164.713;  337.986; 3.34894
 257.08;  172.621;  171.252;  312.391; 1.36876
 257.68;  189.880;  185.874;  307.577; 4.00571
 258.28;  186.613;  182.976;  290.710; 3.63753
 258.87;  191.597;  187.683;  281.589; 3.91367
 259.47;  176.785;  174.008;  256.904; 2.77678
 260.07;  183.931;  180.645;  258.984; 3.28597
 260.66;  160.112;  157.355;  230.508; 2.75733
 261.26;  209.466;  206.348;  273.389; 3.11845
 261.86;  200.355;  196.204;  260.153; 4.15114
 262.45;  175.927;  172.167;  231.401; 3.75978
 263.05;  176.118;  172.644;  230.199; 3.47381
 263.65;  178.465;  174.826;  226.449; 3.63833
 264.24;  193.755;  190.153;  241.350; 3.60194
 264.84;  204.826;  202.018;  281.498; 2.80829
 265.44;  182.577;  178.873;  273.867; 3.70406
 266.03;  177.057;  174.292;  231.179; 2.76533
 266.63;  166.515;  164.434;  197.785; 2.08101
 267.23;  184.182;  179.403;  211.605; 4.77817
 267.82;  163.442;  160.119;  187.883; 3.32306
 268.42;  171.743;  168.722;  194.649; 3.02078
 269.01;  171.087;  167.434;  194.558; 3.65299
 269.61;  181.662;  177.503;  204.840; 4.15926
 270.21;  183.863;  181.812;  207.045; 2.05121
 270.80;  202.641;  199.492;  224.414; 3.14879
 271.40;  164.136;  161.147;  183.775; 2.98883
 271.99;  200.429;  196.273;  218.373; 4.15608
 272.59;  158.353;  154.755;  177.199; 3.59799
 273.19;  167.468;  164.093;  186.254; 3.37447
 273.78;  156.001;  153.743;  175.177; 2.25815
 274.38;  170.283;  166.434;  193.021; 3.84885
 274.97;  180.485;  176.672;  212.682; 3.81287
 275.57;  180.659;  175.871;  215.124; 4.78872
 276.17;  152.073;  148.295;  175.473; 3.77792
 276.76;  178.694;  176.866;  200.892; 1.82798
 277.36;  176.625;  173.676;  195.657; 2.94904
 277.95;  182.557;  179.146;  202.104; 3.41144
 278.55;  165.930;  162.300;  183.571; 3.62919
 279.14;  182.450;  178.438;  204.050; 4.01218
 279.74;  180.763;  178.094;  211.006; 2.66928
 280.34;  166.140;  162.363;  207.562; 3.77735
 280.93;  202.900;  198.461;  243.101; 4.43898
 281.53;  160.201;  156.163;  204.471; 4.03780
 282.12;  183.989;  180.150;  242.247; 3.83918
 282.72;  175.493;  171.170;  237.668; 4.32290
 283.31;  183.334;  179.852;  225.194; 3.48196
 283.91;  163.914;  159.820;  189.204; 4.09344
 284.50;  190.378;  187.279;  209.412; 3.09953
 285.10;  200.308;  196.633;  220.160; 3.67530
 285.69;  161.909;  158.080;  181.279; 3.82866
 286.29;  186.492;  182.021;  205.333; 4.47078
 286.89;  175.209;  170.133;  193.509; 5.07539
 287.48;  179.643;  176.205;  198.821; 3.43814
 288.08;  195.035;  193.365;  213.941; 1.67053
 288.67;  176.415;  173.346;  211.533; 3.06878
 289.27;  177.369;  173.528;  238.460; 3.84143
 289.86;  174.793;  172.028;  224.048; 2.76417
 290.46;  159.923;  156.650;  182.953; 3.27275
 291.05;  175.072;  170.962;  190.854; 4.11062
 291.65;  169.952;  166.434;  186.464; 3.51771
 292.24;  195.568;  191.459;  217.061; 4.10973
 292.84;  178.316;  175.456;  198.640; 2.86015
 293.43;  184.233;  181.351;  201.754; 2.88284
 294.03;  181.692;  178.215;  197.677; 3.47691
 294.62;  189.748;  185.189;  205.562; 4.55941
 295.22;  169.388;  165.583;  187.902; 3.80478
 295.81;  183.903;  179.539;  227.659; 4.36389
 296.41;  172.479;  169.223;  618.639; 3.25580
 297.00;  188.841;  184.150;  879.669; 4.69116
 297.60;  177.738;  173.706;  448.744; 4.03163
 298.19;  182.188;  178.614;  234.456; 3.57405
 298.78;  178.286;  174.864;  208.659; 3.42240
 299.38;  165.316;  161.756;  184.146; 3.55978
 299.97;  191.329;  188.514;  207.510; 2.81512
 300.57;  179.628;  176.677;  193.837; 2.95113
 301.16;  137.197;  133.748;  152.734; 3.44875
 301.76;  176.231;  172.015;  237.006; 4.21528
 302.35;  176.648;  173.885;  322.268; 2.76293
 302.95;  194.992;  191.841;  300.113; 3.15096
 303.54;  154.980;  151.624;  188.905; 3.35536
 304.14;  158.706;  156.602;  182.352; 2.10387
 304.73;  192.260;  188.430;  213.586; 3.83000
 305.32;  182.074;  178.778;  200.159; 3.29548
 305.92;  160.936;  158.019;  180.386; 2.91664
 306.51;  157.381;  153.813;  174.896; 3.56748
 307.11;  177.095;  173.442;  194.701; 3.65257
 307.70;  156.278;  153.785;  174.665; 2.49304
 308.29;  159.519;  155.230;  177.264; 4.28844
 308.89;  166.797;  163.670;  185.946; 3.12694
 309.48;  128.144;  124.929;  149.281; 3.21554
 310.08;  167.144;  164.415;  192.005; 2.72926
 310.67;  168.200;  164.152;  194.927; 4.04816
 311.27;  154.381;  150.525;  202.344; 3.85600
 311.86;  158.822;  156.204;  434.649; 2.61842
 312.45;  164.716;  162.050; 1292.883; 2.66541
 313.05;  175.061;  172.450; 2220.983; 2.61043
 313.64;  168.743;  167.082; 1904.856; 1.66091
 314.23;  159.676;  156.245;  905.625; 3.43054
 314.83;  184.294;  180.583;  437.262; 3.71141
 315.42;  154.031;  150.195;  324.042; 3.83673
 316.02;  157.570;  155.471;  288.107; 2.09896
 316.61;  152.475;  148.681;  258.543; 3.79375
 317.20;  165.624;  163.095;  253.209; 2.52941
 317.80;  159.880;  155.435;  232.493; 4.44478
 318.39;  163.010;  159.932;  233.203; 3.07798
 318.98;  194.636;  190.871;  247.328; 3.76512
 319.58;  170.205;  165.811;  216.003; 4.39409
 320.17;  168.111;  165.908;  213.990; 2.20341
 320.76;  169.092;  165.569;  212.286; 3.52317
 321.36;  170.354;  165.360;  202.238; 4.99372
 321.95;  167.888;  163.546;  195.718; 4.34230
 322.55;  184.952;  182.524;  213.062; 2.42818
 323.14;  152.136;  147.977;  181.970; 4.15896
 323.73;  154.990;  151.773;  184.904; 3.21690
 324.33;  176.442;  171.757;  201.519; 4.68468
 324.92;  170.011;  166.605;  192.560; 3.40632
 325.51;  168.507;  163.988;  187.946; 4.51889
 326.10;  162.287;  158.567;  181.914; 3.71957
 326.70;  174.898;  170.823;  193.516; 4.07418
 327.29;  169.320;  165.754;  187.224; 3.56613
 327.88;  164.104;  160.484;  182.818; 3.62037
 328.48;  176.996;  172.900;  198.026; 4.09650
 329.07;  179.640;  176.931;  199.266; 2.70982
 329.66;  170.634;  167.338;  189.404; 3.29631
 330.26;  175.516;  170.315;  192.723; 5.20036
 330.85;  179.083;  175.245;  195.784; 3.83847
 331.44;  175.672;  171.748;  189.246; 3.92348
 332.04;  176.855;  173.970;  189.683; 2.88474
 332.63;  164.714;  160.135;  174.903; 4.57891
 333.22;  176.343;  172.764;  195.090; 3.57861
 333.81;  180.934;  178.451;  235.574; 2.48266
 334.41;  180.519;  176.567;  249.291; 3.95213
 335.00;  190.908;  187.943;  222.102; 2.96461
 335.59;  176.272;  171.635;  182.714; 4.63668
 336.18;  186.080;  183.361;  190.339; 2.71843
 336.78;  165.765;  162.601;  169.251; 3.16377
 337.37;  169.944;  167.347;  174.332; 2.59672
 337.96;  225.671;  223.507;  229.099; 2.16468
 338.55;  197.668;  194.528;  200.760; 3.13957
 339.15;  184.794;  182.290;  187.809; 2.50357
 339.74;  173.869;  170.423;  176.051; 3.44536
 340.33;  170.806;  166.761;  172.264; 4.04434
 340.92;  183.891;  179.833;  185.726; 4.05827
 341.52;  175.582;  174.017;  179.138; 1.56483
 342.11;  172.896;  170.075;  175.982; 2.82098
 342.70;  160.007;  157.067;  162.731; 2.94018
 343.29;  178.530;  174.449;  180.213; 4.08043
 343.89;  164.106;  160.703;  166.492; 3.40307
 344.48;  177.815;  174.727;  181.187; 3.08807
 345.07;  155.187;  151.632;  158.639; 3.55504
 345.66;  183.656;  180.273;  186.801; 3.38295
 346.25;  169.681;  166.511;  171.893; 3.16959
 346.85;  181.705;  177.788;  184.557; 3.91712
 347.44;  160.105;  156.673;  164.301; 3.43207
 348.03;  169.308;  165.808;  173.428; 3.49947
 348.62;  187.796;  185.926;  191.544; 1.86952
 349.21;  163.955;  161.691;  170.085; 2.26355
 349.81;  175.951;  172.419;  180.710; 3.53123
 350.40;  163.330;  159.988;  168.015; 3.34154
 350.99;  159.044;  155.664;  164.370; 3.37968
 351.58;  169.634;  164.716;  175.213; 4.91795
 352.17;  143.076;  141.008;  150.727; 2.06743
 352.77;  169.146;  165.438;  175.698; 3.70790
 353.36;  176.412;  172.920;  184.777; 3.49181
 353.95;  176.746;  173.301;  183.532; 3.44520
 354.54;  155.668;  153.863;  164.695; 1.80522
 355.13;  173.618;  170.783;  185.178; 2.83475
 355.72;  178.903;  174.317;  189.178; 4.58667
 356.32;  167.291;  164.231;  179.394; 3.06025
 356.91;  187.336;  183.800;  198.581; 3.53652
 357.50;  170.319;  166.814;  181.332; 3.50497
 358.09;  163.653;  161.077;  175.948; 2.57568
 358.68;  167.787;  164.655;  182.453; 3.13203
 359.27;  179.312;  175.654;  193.575; 3.65837
 359.86;  184.998;  181.288;  201.175; 3.71030
 360.46;  156.766;  154.076;  174.085; 2.68987
 361.05;  172.921;  168.579;  190.340; 4.34216
 361.64;  165.809;  162.541;  185.086; 3.26796
 362.23;  171.420;  166.555;  194.651; 4.86531
 362.82;  164.732;  160.226;  192.502; 4.50641
 363.41;  168.502;  164.669;  207.875; 3.83284
 364.00;  176.124;  172.156;  353.780; 3.96749
 364.59;  182.608;  178.716; 1486.313; 3.89143
 365.19;  160.829;  158.199; 2522.935; 2.63015
 365.78;  180.557;  179.113; 1660.725; 1.44411
 366.37;  167.820;  164.869;  731.492; 2.95161
 366.96;  169.172;  165.324;  397.552; 3.84795
 367.55;  181.501;  178.115;  244.913; 3.38678
 368.14;  177.338;  173.306;  214.336; 4.03177
 368.73;  184.819;  183.335;  218.072; 1.48451
 369.32;  188.811;  185.203;  217.455; 3.60739
 369.91;  181.822;  179.000;  209.941; 2.82198
 370.50;  191.216;  187.978;  219.302; 3.23756
 371.09;  173.564;  170.219;  202.742; 3.34447
 371.69;  168.972;  165.371;  198.902; 3.60075
 372.28;  164.108;  161.032;  193.164; 3.07656
 372.87;  198.268;  194.495;  229.204; 3.77238
 373.46;  167.508;  162.786;  198.627; 4.72211
 374.05;  186.327;  182.726;  218.578; 3.60047
 374.64;  185.698;  182.429;  220.031; 3.26923
 375.23;  176.634;  173.409;  210.680; 3.22490
 375.82;  194.727;  191.877;  231.757; 2.84950
 376.41;  190.922;  187.002;  227.311; 3.91938
 377.00;  189.382;  186.060;  229.443; 3.32168
 377.59;  180.731;  176.931;  220.777; 3.80027
 378.18;  181.591;  179.365;  222.855; 2.22520
 378.77;  179.959;  177.506;  221.661; 2.45288
 379.36;  171.318;  167.725;  215.856; 3.59328
 379.95;  190.533;  188.814;  236.560; 1.71870
 380.54;  185.000;  180.542;  233.047; 4.45732
 381.13;  196.994;  194.423;  245.947; 2.57073
 381.72;  165.363;  162.089;  217.145; 3.27363
 382.31;  199.206;  195.072;  250.810; 4.13364
 382.90;  180.814;  178.791;  235.621; 2.02322
 383.49;  227.574;  223.253;  281.132; 4.32173
 384.08;  169.039;  166.195;  226.846; 2.84343
 384.67;  195.044;  191.906;  252.682; 3.13885
 385.26;  189.258;  185.799;  250.489; 3.45986
 385.85;  173.772;  169.888;  233.966; 3.88426
 386.44;  187.776;  183.949;  250.247; 3.82700
 387.03;  197.427;  194.145;  264.478; 3.28163
 387.62;  162.032;  158.870;  228.198; 3.16200
 388.21;  195.862;  192.293;  263.020; 3.56968
 388.80;  177.593;  174.378;  246.997; 3.21454
 389.39;  182.521;  178.567;  253.348; 3.95411
 389.98;  180.399;  177.961;  255.753; 2.43832
 390.57;  178.980;  175.013;  255.437; 3.96688
 391.16;  186.179;  183.196;  261.714; 2.98293
 391.75;  196.127;  192.996;  269.716; 3.13094
 392.34;  197.404;  193.226;  270.151; 4.17784
 392.93;  191.291;  188.718;  268.909; 2.57257
 393.52;  168.278;  163.534;  245.097; 4.74380
 394.11;  170.798;  167.674;  250.044; 3.12430
 394.70;  209.846;  207.232;  289.266; 2.61475
 395.29;  190.556;  187.369;  271.052; 3.18657
 395.88;  176.647;  174.055;  257.652; 2.59148
 396.47;  193.989;  190.842;  273.788; 3.14693
 397.05;  178.653;  176.117;  258.016; 2.53686
 397.64;  191.118;  187.679;  272.155; 3.43919
 398.23;  182.982;  180.032;  265.215; 2.94927
 398.82;  183.909;  181.963;  265.767; 1.94527
 399.41;  174.256;  170.240;  255.098; 4.01616
 400.00;  170.809;  168.286;  252.393; 2.52312
 400.59;  191.273;  189.395;  273.690; 1.87812
 401.18;  186.060;  182.974;  269.091; 3.08581
 401.77;  179.120;  176.364;  262.585; 2.75630
 402.36;  193.233;  188.854;  281.319; 4.37903
 402.95;  176.898;  174.099;  273.673; 2.79892
 403.53;  192.594;  190.108;  388.007; 2.48665
 404.12;  179.546;  175.734; 1465.115; 3.81206
 404.71;  176.096;  173.658; 2583.144; 2.43768
 405.30;  157.005;  153.799; 1466.161; 3.20591
 405.89;  172.577;  169.976;  421.434; 2.60123
 406.48;  193.265;  190.485;  292.922; 2.78030
 407.07;  166.312;  161.832;  287.548; 4.47965
 407.66;  190.354;  186.426;  386.657; 3.92790
 408.24;  190.030;  185.980;  354.475; 4.05002
 408.83;  191.955;  188.277;  276.672; 3.67750
 409.42;  166.775;  163.692;  233.595; 3.08307
 410.01;  182.247;  179.442;  246.646; 2.80518
 410.60;  193.651;  190.751;  254.574; 2.89967
 411.19;  163.185;  158.964;  222.268; 4.22123
 411.78;  163.304;  159.580;  221.798; 3.72430
 412.36;  168.758;  166.294;  225.619; 2.46403
 412.95;  177.476;  174.622;  232.970; 2.85428
 413.54;  198.886;  196.434;  253.428; 2.45260
 414.13;  191.684;  188.494;  245.348; 3.18981
 414.72;  173.260;  170.550;  226.540; 2.70965
 415.31;  174.710;  172.091;  228.778; 2.61878
 415.89;  158.339;  154.371;  208.684; 3.96865
 416.48;  177.576;  172.903;  225.226; 4.67351
 417.07;  168.055;  163.674;  214.352; 4.38070
 417.66;  197.532;  193.063;  243.116; 4.46903
 418.25;  183.167;  179.507;  226.683; 3.66010
 418.83;  179.535;  174.184;  222.017; 5.35087
 419.42;  184.047;  178.844;  226.599; 5.20346
 420.01;  184.484;  182.921;  228.959; 1.56326
 420.60;  184.374;  179.992;  225.851; 4.38262
 421.19;  207.391;  202.697;  246.419; 4.69417
 421.77;  163.245;  159.119;  202.087; 4.12633
 422.36;  193.051;  190.120;  230.957; 2.93094
 422.95;  181.637;  177.825;  218.066; 3.81204
 423.54;  200.156;  196.331;  236.024; 3.82588
 424.12;  191.254;  186.228;  225.095; 5.02554
 424.71;  191.022;  186.793;  224.132; 4.22914
 425.30;  197.982;  191.971;  231.290; 6.01116
 425.89;  196.164;  191.839;  228.544; 4.32507
 426.48;  186.839;  182.641;  220.262; 4.19799
 427.06;  181.143;  176.712;  212.383; 4.43106
 427.65;  195.580;  190.214;  225.779; 5.36616
 428.24;  174.520;  170.157;  202.939; 4.36296
 428.83;  184.284;  179.758;  213.653; 4.52557
 429.41;  196.707;  191.093;  224.759; 5.61394
 430.00;  183.517;  177.556;  211.652; 5.96132
 430.59;  219.413;  210.549;  246.183; 8.86353
 431.17;  200.638;  195.419;  229.574; 5.21907
 431.76;  200.986;  194.669;  230.916; 6.31694
 432.35;  210.191;  203.964;  241.614; 6.22748
 432.94;  205.317;  199.092;  244.729; 6.22529
 433.52;  203.287;  197.763;  258.083; 5.52435
 434.11;  210.162;  204.189;  298.172; 5.97352
 434.70;  201.067;  193.774;  485.671; 7.29262
 435.29;  215.164;  208.933; 2805.055; 6.23063
 435.87;  208.921;  202.933; 5150.592; 5.98827
 436.46;  212.315;  206.346; 2722.762; 5.96867
 437.05;  185.817;  179.373;  540.545; 6.44365
 437.63;  203.482;  197.695;  274.666; 5.78712
 438.22;  207.427;  200.998;  248.964; 6.42862
 438.81;  220.754;  213.821;  253.576; 6.93273
 439.39;  194.693;  186.400;  219.764; 8.29305
 439.98;  211.163;  202.183;  232.521; 8.97965
 440.57;  208.133;  197.256;  225.617;10.87739
 441.15;  214.560;  193.395;  219.055;21.16455
 441.74;  241.068;  199.184;  220.966;41.88338
 442.33;  273.682;  206.115;  227.628;67.56723
 442.91;  292.285;  200.382;  222.203;91.90234
 443.50;  300.336;  192.745;  212.909;107.59087
 444.09;  298.291;  182.183;  202.260;116.10854
 444.67;  330.302;  216.214;  236.318;114.08790
 445.26;  300.011;  195.304;  213.821;104.70650
 445.85;  305.504;  211.454;  229.093;94.04987
 446.43;  278.173;  194.202;  213.253;83.97099
 447.02;  264.456;  195.692;  213.971;68.76345
 447.61;  230.715;  176.504;  193.601;54.21107
 448.19;  238.966;  202.091;  218.236;36.87481
 448.78;  217.509;  192.709;  208.027;24.80006
 449.36;  211.522;  196.322;  212.489;15.19956
 449.95;  199.208;  189.809;  205.296; 9.39897
 450.54;  194.252;  186.291;  202.068; 7.96106
 451.12;  215.171;  209.062;  224.440; 6.10885
 451.71;  180.692;  174.470;  190.035; 6.22236
 452.30;  205.848;  200.360;  214.755; 5.48749
 452.88;  196.431;  189.679;  204.263; 6.75175
 453.47;  179.735;  173.936;  188.234; 5.79890
 454.05;  188.363;  183.852;  198.324; 4.51174
 454.64;  200.049;  195.260;  209.186; 4.78926
 455.22;  214.428;  209.396;  222.695; 5.03261
 455.81;  179.182;  173.967;  186.806; 5.21535
 456.40;  215.193;  210.083;  221.415; 5.10981
 456.98;  188.966;  183.685;  196.557; 5.28090
 457.57;  206.648;  201.147;  214.096; 5.50183
 458.15;  212.710;  207.769;  220.194; 4.94119
 458.74;  200.105;  195.236;  205.667; 4.86886
 459.33;  204.437;  200.345;  211.567; 4.09194
 459.91;  204.040;  199.537;  209.606; 4.50286
 460.50;  203.245;  199.927;  210.124; 3.31772
 461.08;  195.105;  191.316;  201.549; 3.78849
 461.67;  197.505;  193.380;  203.915; 4.12478
 462.25;  201.312;  198.471;  208.184; 2.84040
 462.84;  171.215;  168.095;  177.443; 3.12008
 463.42;  191.307;  186.336;  197.335; 4.97085
 464.01;  192.536;  187.394;  200.154; 5.14153
 464.59;  202.792;  199.975;  209.773; 2.81714
 465.18;  192.277;  187.276;  196.631; 5.00135
 465.76;  196.458;  192.561;  202.098; 3.89644
 466.35;  195.770;  192.762;  202.134; 3.00810
 466.94;  205.880;  202.229;  211.128; 3.65174
 467.52;  215.176;  211.881;  220.402; 3.29435
 468.11;  180.813;  177.336;  185.451; 3.47671
 468.69;  174.400;  170.165;  178.777; 4.23417
 469.28;  165.123;  161.175;  169.570; 3.94758
 469.86;  201.305;  197.681;  204.795; 3.62435
 470.45;  195.667;  191.272;  198.769; 4.39519
 471.03;  177.319;  172.248;  179.928; 5.07162
 471.62;  187.313;  183.444;  189.847; 3.86882
 472.20;  190.560;  186.086;  194.726; 4.47357
 472.79;  226.156;  222.892;  228.835; 3.26335
 473.37;  189.580;  186.459;  192.908; 3.12042
 473.95;  189.448;  183.877;  192.703; 5.57083
 474.54;  149.199;  145.957;  152.162; 3.24148
 475.12;  215.580;  211.149;  218.210; 4.43078
 475.71;  197.043;  192.610;  199.441; 4.43298
 476.29;  200.241;  196.363;  203.200; 3.87803
 476.88;  176.874;  172.972;  178.540; 3.90141
 477.46;  176.940;  174.791;  179.356; 2.14873
 478.05;  185.017;  180.951;  186.478; 4.06671
 478.63;  188.051;  185.430;  191.034; 2.62041
 479.22;  169.403;  166.175;  170.278; 3.22871
 479.80;  194.500;  189.907;  195.363; 4.59303
 480.38;  188.770;  185.840;  191.085; 2.93059
 480.97;  172.503;  169.570;  174.897; 2.93300
 481.55;  184.146;  180.721;  186.205; 3.42564
 482.14;  206.267;  202.878;  207.401; 3.38937
 482.72;  180.533;  176.124;  182.124; 4.40857
 483.31;  177.685;  174.403;  177.897; 3.28212
 483.89;  180.858;  178.503;  182.403; 2.35500
 484.47;  181.869;  178.466;  182.354; 3.40311
 485.06;  171.654;  168.540;  172.672; 3.11416
 485.64;  194.042;  192.992;  195.664; 1.04977
 486.23;  199.121;  197.050;  200.398; 2.07132
 486.81;  193.555;  189.918;  194.241; 3.63666
 487.39;  163.098;  160.088;  164.354; 3.00973
 487.98;  176.126;  172.594;  176.507; 3.53225
 488.56;  205.080;  201.878;  205.349; 3.20239
 489.15;  175.495;  170.912;  176.203; 4.58295
 489.73;  178.942;  175.128;  179.606; 3.81491
 490.31;  176.487;  174.835;  179.772; 1.65143
 490.90;  178.544;  175.154;  182.159; 3.39043
 491.48;  182.400;  178.744;  192.437; 3.65686
 492.06;  196.340;  192.297;  201.679; 4.04280
 492.65;  167.215;  163.759;  168.469; 3.45629
 493.23;  154.630;  151.642;  155.351; 2.98804
 493.82;  189.143;  185.341;  188.929; 3.80253
 494.40;  154.754;  151.904;  154.592; 2.85007
 494.98;  174.060;  170.126;  173.304; 3.93414
 495.57;  154.718;  151.372;  154.804; 3.34554
 496.15;  152.044;  147.929;  152.224; 4.11509
 496.73;  166.187;  162.645;  165.567; 3.54227
 497.32;  187.969;  183.062;  185.987; 4.90736
 497.90;  185.247;  182.221;  184.261; 3.02600
 498.48;  163.044;  158.959;  161.229; 4.08474
 499.07;  166.288;  164.865;  167.574; 1.42275
 499.65;  186.112;  182.334;  185.883; 3.77747
 500.23;  151.810;  148.420;  150.126; 3.39007
 500.82;  163.056;  161.391;  163.825; 1.66515
 501.40;  166.912;  163.786;  166.053; 3.12556
 501.98;  179.942;  176.743;  178.435; 3.19921
 502.56;  192.597;  190.659;  192.690; 1.93834
 503.15;  194.045;  189.957;  191.639; 4.08743
 503.73;  175.940;  174.199;  175.410; 1.74063
 504.31;  179.225;  176.273;  178.659; 2.95166
 504.90;  186.605;  183.849;  186.738; 2.75641
 505.48;  201.041;  197.861;  199.199; 3.18000
 506.06;  185.554;  182.214;  184.710; 3.33975
 506.64;  171.918;  167.755;  170.026; 4.16316
 507.23;  177.799;  174.493;  176.401; 3.30575
 507.81;  189.834;  185.624;  188.977; 4.20936
 508.39;  177.815;  174.552;  176.174; 3.26360
 508.97;  185.559;  182.149;  185.047; 3.40945
 509.56;  195.332;  193.061;  194.375; 2.27191
 510.14;  162.403;  158.441;  161.241; 3.96208
 510.72;  178.459;  176.314;  177.478; 2.14438
 511.30;  189.044;  185.663;  186.041; 3.38115
 511.89;  186.508;  183.962;  185.565; 2.54575
 512.47;  181.765;  178.887;  181.031; 2.87836
 513.05;  178.937;  174.809;  177.585; 4.12766
 513.63;  178.592;  175.330;  177.868; 3.26232
 514.22;  190.958;  186.419;  189.266; 4.53906
 514.80;  188.875;  187.149;  188.139; 1.72554
 515.38;  179.593;  176.359;  179.039; 3.23359
 515.96;  201.598;  198.646;  200.259; 2.95177
 516.55;  175.076;  171.662;  172.391; 3.41456
 517.13;  184.475;  181.301;  186.021; 3.17429
 517.71;  169.394;  167.765;  169.247; 1.62913
 518.29;  170.332;  166.993;  170.914; 3.33892
 518.87;  182.400;  180.043;  182.674; 2.35730
 519.46;  175.879;  171.588;  174.753; 4.29125
 520.04;  178.174;  174.477;  177.625; 3.69690
 520.62;  168.526;  165.577;  166.467; 2.94929
 521.20;  164.003;  161.544;  162.686; 2.45895
 521.78;  181.253;  177.077;  180.553; 4.17573
 522.36;  176.395;  173.507;  175.982; 2.88738
 522.95;  177.393;  173.525;  177.197; 3.86768
 523.53;  163.912;  160.559;  164.834; 3.35329
 524.11;  177.508;  172.830;  176.760; 4.67820
 524.69;  171.263;  168.486;  170.408; 2.77750
 525.27;  173.689;  170.764;  173.546; 2.92534
 525.85;  183.581;  179.811;  182.985; 3.77010
 526.44;  183.611;  180.926;  182.487; 2.68475
 527.02;  192.913;  190.051;  192.145; 2.86205
 527.60;  186.786;  182.817;  184.817; 3.96888
 528.18;  168.679;  164.163;  168.352; 4.51620
 528.76;  197.081;  195.064;  197.754; 2.01682
 529.34;  183.072;  178.814;  182.904; 4.25802
 529.92;  199.128;  195.851;  199.070; 3.27645
 530.51;  187.437;  185.190;  189.082; 2.24733
 531.09;  180.305;  177.524;  180.559; 2.78036
 531.67;  174.757;  171.716;  176.286; 3.04063
 532.25;  197.624;  193.898;  198.863; 3.72545
 532.83;  198.541;  193.453;  200.968; 5.08798
 533.41;  173.504;  170.702;  175.342; 2.80216
 533.99;  198.508;  194.779;  200.241; 3.72856
 534.57;  216.397;  214.377;  219.337; 2.02063
 535.15;  177.992;  175.647;  181.714; 2.34513
 535.74;  173.333;  169.958;  177.698; 3.37466
 536.32;  179.349;  176.294;  183.533; 3.05509
 536.90;  171.184;  168.087;  173.158; 3.09746
 537.48;  185.852;  181.900;  186.764; 3.95164
 538.06;  203.114;  199.959;  204.852; 3.15495
 538.64;  189.076;  185.566;  193.302; 3.50993
 539.22;  181.020;  177.351;  184.206; 3.66872
 539.80;  186.671;  183.048;  190.142; 3.62308
 540.38;  201.923;  198.265;  205.750; 3.65836
 540.96;  171.500;  167.682;  176.155; 3.81780
 541.54;  177.488;  173.804;  183.672; 3.68345
 542.12;  220.619;  216.864;  228.946; 3.75422
 542.70;  167.618;  161.903;  178.319; 5.71540
 543.28;  185.210;  182.019;  202.682; 3.19097
 543.86;  178.732;  174.277;  204.103; 4.45513
 544.44;  228.845;  226.892;  278.849; 1.95350
 545.02;  198.497;  194.464;  518.343; 4.03298
 545.61;  186.827;  183.184; 3429.565; 3.64274
 546.19;  190.742;  186.751; 4874.079; 3.99075
 546.77;  183.549;  181.234; 1764.281; 2.31522
 547.35;  217.351;  213.513;  398.729; 3.83843
 547.93;  192.381;  190.275;  238.837; 2.10625
 548.51;  195.476;  192.444;  217.970; 3.03157
 549.09;  203.043;  200.520;  218.477; 2.52254
 549.67;  203.734;  200.022;  211.654; 3.71177
 550.25;  184.288;  180.811;  191.700; 3.47666
 550.83;  208.037;  205.418;  213.583; 2.61943
 551.41;  194.239;  192.111;  198.861; 2.12843
 551.99;  193.602;  191.188;  196.932; 2.41354
 552.57;  194.271;  191.228;  197.915; 3.04291
 553.15;  213.302;  209.117;  214.893; 4.18500
 553.73;  173.163;  170.078;  174.930; 3.08541
 554.30;  205.686;  201.957;  206.191; 3.72913
 554.88;  191.804;  188.356;  191.836; 3.44722
 555.46;  199.642;  195.482;  201.328; 4.15974
 556.04;  193.466;  189.068;  193.265; 4.39798
 556.62;  215.328;  211.218;  215.762; 4.10959
 557.20;  178.501;  175.190;  178.369; 3.31022
 557.78;  201.187;  197.203;  201.259; 3.98459
 558.36;  214.067;  211.720;  213.174; 2.34639
 558.94;  212.593;  208.744;  212.481; 3.84864
 559.52;  186.329;  182.546;  185.274; 3.78284
 560.10;  201.547;  197.712;  200.758; 3.83473
 560.68;  200.004;  197.598;  200.698; 2.40539
 561.26;  220.674;  216.549;  221.469; 4.12508
 561.84;  178.957;  176.186;  179.169; 2.77090
 562.42;  194.831;  190.872;  194.921; 3.95855
 563.00;  200.902;  196.236;  200.683; 4.66563
 563.58;  197.149;  193.715;  197.730; 3.43386
 564.15;  195.214;  191.132;  196.425; 4.08216
 564.73;  202.441;  199.274;  203.546; 3.16684
 565.31;  214.609;  210.517;  214.694; 4.09198
 565.89;  179.035;  176.152;  180.168; 2.88218
 566.47;  191.058;  186.376;  190.334; 4.68241
 567.05;  210.319;  207.090;  209.801; 3.22854
 567.63;  194.447;  190.231;  193.745; 4.21625
 568.21;  185.740;  184.467;  188.234; 1.27311
 568.79;  211.512;  207.780;  211.859; 3.73154
 569.36;  234.606;  231.222;  236.033; 3.38366
 569.94;  189.494;  185.240;  190.086; 4.25444
 570.52;  208.060;  204.336;  208.876; 3.72393
 571.10;  156.791;  153.109;  157.098; 3.68202
 571.68;  198.871;  196.182;  199.348; 2.68928
 572.26;  204.973;  202.530;  206.805; 2.44314
 572.84;  210.288;  206.460;  213.302; 3.82827
 573.41;  189.465;  186.632;  191.510; 2.83293
 573.99;  232.278;  227.859;  234.484; 4.41930
 574.57;  194.090;  191.082;  198.005; 3.00834
 575.15;  226.718;  223.101;  233.762; 3.61780
 575.73;  210.475;  206.807;  238.659; 3.66812
 576.31;  206.897;  203.764;  581.907; 3.13300
 576.88;  182.699;  180.000;  993.686; 2.69843
 577.46;  191.656;  187.217;  632.249; 4.43929
 578.04;  185.728;  182.140;  314.338; 3.58802
 578.62;  184.770;  182.141;  838.586; 2.62906
 579.20;  191.205;  187.289; 1006.280; 3.91632
 579.78;  197.807;  195.108;  438.584; 2.69873
 580.35;  198.054;  194.661;  224.094; 3.39249
 580.93;  186.457;  183.319;  193.932; 3.13838
 581.51;  200.354;  197.904;  203.406; 2.45050
 582.09;  180.157;  177.021;  181.770; 3.13573
 582.67;  181.552;  178.717;  181.880; 2.83513
 583.24;  185.255;  181.913;  185.282; 3.34157
 583.82;  187.986;  184.170;  188.714; 3.81686
 584.40;  185.932;  183.018;  186.158; 2.91448
 584.98;  183.605;  180.437;  183.929; 3.16822
 585.55;  194.903;  191.740;  197.391; 3.16353
 586.13;  170.464;  168.560;  170.347; 1.90428
 586.71;  193.433;  189.825;  193.534; 3.60763
 587.29;  187.091;  183.159;  185.393; 3.93147
 587.86;  189.988;  185.415;  189.128; 4.57327
 588.44;  151.862;  148.676;  151.278; 3.18621
 589.02;  204.289;  199.453;  202.846; 4.83659
 589.60;  181.613;  178.239;  180.686; 3.37366
 590.17;  193.954;  190.163;  192.297; 3.79069
 590.75;  170.759;  167.953;  169.301; 2.80608
 591.33;  171.260;  167.885;  171.119; 3.37527
 591.91;  181.961;  177.390;  180.134; 4.57093
 592.48;  175.005;  171.850;  174.727; 3.15457
 593.06;  192.124;  189.411;  191.277; 2.71387
 593.64;  186.896;  184.429;  186.123; 2.46791
 594.21;  172.995;  170.349;  171.966; 2.64555
 594.79;  185.977;  182.273;  184.253; 3.70462
 595.37;  187.896;  185.500;  186.634; 2.39653
 595.95;  171.084;  167.131;  169.210; 3.95261
 596.52;  175.882;  173.512;  174.385; 2.37023
 597.10;  181.299;  180.359;  181.543; 0.93947
 597.68;  169.225;  164.216;  167.048; 5.00953
 598.25;  192.386;  188.818;  191.102; 3.56825
 598.83;  169.479;  166.330;  168.230; 3.14948
 599.41;  183.699;  182.100;  181.930; 1.59923
 599.98;  208.970;  206.795;  207.470; 2.17504
 600.56;  197.802;  194.319;  196.510; 3.48305
 601.14;  183.627;  181.172;  182.296; 2.45512
 601.71;  186.618;  183.589;  185.581; 3.02909
 602.29;  173.050;  169.419;  171.919; 3.63082
 602.87;  197.196;  194.769;  196.942; 2.42759
 603.44;  191.051;  187.254;  189.970; 3.79675
 604.02;  183.566;  180.861;  183.106; 2.70539
 604.60;  203.415;  200.630;  201.173; 2.78498
 605.17;  210.608;  207.202;  208.291; 3.40519
 605.75;  198.826;  196.203;  198.867; 2.62243
 606.33;  191.277;  188.326;  190.642; 2.95166
 606.90;  212.250;  208.154;  211.394; 4.09626
 607.48;  201.357;  197.860;  199.325; 3.49660
 608.05;  179.998;  176.407;  178.524; 3.59101
 608.63;  187.885;  183.413;  186.371; 4.47183
 609.21;  178.164;  175.125;  176.448; 3.03950
 609.78;  207.389;  202.864;  205.182; 4.52485
 610.36;  194.835;  192.154;  191.741; 2.68132
 610.93;  199.722;  195.185;  196.171; 4.53751
 611.51;  181.255;  177.196;  179.469; 4.05848
 612.09;  209.157;  205.436;  207.395; 3.72109
 612.66;  190.495;  188.704;  190.107; 1.79125
 613.24;  205.009;  201.654;  203.003; 3.35485
 613.81;  209.864;  205.772;  206.200; 4.09217
 614.39;  205.311;  200.987;  203.399; 4.32448
 614.96;  220.827;  217.772;  217.412; 3.05537
 615.54;  203.142;  200.136;  201.843; 3.00610
 616.12;  213.333;  208.747;  209.965; 4.58587
 616.69;  170.549;  167.104;  169.197; 3.44485
 617.27;  198.965;  195.313;  196.719; 3.65203
 617.84;  180.948;  176.420;  178.833; 4.52744
 618.42;  214.550;  212.021;  211.207; 2.52896
 618.99;  198.089;  196.354;  195.870; 1.73525
 619.57;  217.624;  213.618;  214.600; 4.00607
 620.14;  207.607;  203.450;  204.552; 4.15703
 620.72;  185.160;  183.029;  183.325; 2.13085
 621.30;  208.477;  206.396;  206.934; 2.08075
 621.87;  216.280;  214.650;  212.652; 1.63060
 622.45;  207.854;  204.469;  204.167; 3.38537
 623.02;  180.038;  177.509;  178.127; 2.52908
 623.60;  191.222;  186.830;  189.356; 4.39265
 624.17;  198.582;  193.902;  194.886; 4.67958
 624.75;  207.413;  205.391;  205.327; 2.02212
 625.32;  194.714;  191.394;  192.308; 3.31951
 625.90;  201.101;  197.282;  198.133; 3.81951
 626.47;  211.703;  208.475;  210.485; 3.22883
 627.05;  182.849;  180.684;  179.759; 2.16436
 627.62;  200.148;  196.974;  196.459; 3.17401
 628.20;  220.984;  218.835;  218.249; 2.14849
 628.77;  214.421;  212.549;  211.877; 1.87245
 629.34;  234.006;  230.323;  231.819; 3.68315
 629.92;  190.768;  187.731;  187.490; 3.03738
 630.49;  216.620;  212.216;  213.266; 4.40377
 631.07;  191.442;  188.351;  188.294; 3.09053
 631.64;  190.520;  186.963;  187.824; 3.55635
 632.22;  233.182;  230.101;  230.912; 3.08126
 632.79;  208.785;  204.962;  206.039; 3.82363
 633.37;  216.490;  212.244;  212.526; 4.24592
 633.94;  209.282;  206.734;  206.488; 2.54781
 634.52;  204.158;  200.579;  199.758; 3.57867
 635.09;  218.020;  214.711;  215.253; 3.30908
 635.66;  182.916;  180.185;  181.904; 2.73112
 636.24;  197.453;  194.244;  196.282; 3.20859
 636.81;  238.777;  235.976;  236.037; 2.80135
 637.39;  222.000;  219.078;  219.425; 2.92127
 637.96;  217.823;  214.702;  214.710; 3.12078
 638.54;  217.570;  213.006;  214.657; 4.56453
 639.11;  193.891;  190.482;  192.193; 3.40932
 639.68;  220.327;  216.255;  218.132; 4.07167
 640.26;  203.772;  199.975;  200.830; 3.79753
 640.83;  205.032;  201.630;  202.731; 3.40258
 641.41;  198.875;  195.500;  195.288; 3.37563
 641.98;  204.991;  201.296;  202.609; 3.69568
 642.55;  183.365;  181.592;  181.128; 1.77373
 643.13;  200.887;  197.802;  198.066; 3.08579
 643.70;  219.680;  215.956;  217.215; 3.72484
 644.27;  205.462;  203.148;  203.618; 2.31489
 644.85;  196.340;  193.782;  194.159; 2.55794
 645.42;  203.783;  199.487;  199.911; 4.29599
 645.99;  193.674;  189.177;  190.061; 4.49705
 646.57;  198.580;  195.252;  196.463; 3.32810
 647.14;  204.361;  201.563;  201.200; 2.79815
 647.72;  181.855;  179.554;  180.416; 2.30120
 648.29;  194.512;  191.996;  192.608; 2.51625
 648.86;  220.037;  216.634;  216.710; 3.40331
 649.44;  187.456;  183.829;  183.041; 3.62636
 650.01;  196.627;  193.153;  193.457; 3.47341
 650.58;  205.330;  201.539;  202.430; 3.79046
 651.16;  203.815;  200.184;  200.440; 3.63051
 651.73;  192.500;  188.469;  187.736; 4.03057
 652.30;  208.630;  204.414;  207.431; 4.21562
 652.87;  193.789;  190.593;  192.315; 3.19567
 653.45;  216.884;  212.123;  212.966; 4.76072
 654.02;  190.634;  185.976;  187.624; 4.65777
 654.59;  199.586;  196.795;  196.423; 2.79083
 655.17;  205.146;  201.212;  201.261; 3.93388
 655.74;  189.475;  185.868;  184.871; 3.60693
 656.31;  200.976;  197.586;  197.131; 3.38998
 656.89;  202.936;  199.322;  199.572; 3.61403
 657.46;  207.977;  205.252;  205.138; 2.72509
 658.03;  213.887;  211.349;  212.823; 2.53814
 658.60;  196.971;  193.805;  194.048; 3.16519
 659.18;  212.002;  208.100;  210.082; 3.90124
 659.75;  196.680;  193.374;  194.466; 3.30530
 660.32;  214.917;  212.133;  212.587; 2.78335
 660.89;  196.174;  192.428;  193.109; 3.74540
 661.47;  214.976;  212.311;  212.436; 2.66445
 662.04;  215.935;  212.624;  212.492; 3.31050
 662.61;  197.697;  193.858;  195.400; 3.83856
 663.18;  205.063;  201.294;  202.315; 3.76861
 663.76;  185.707;  182.413;  181.848; 3.29366
 664.33;  211.387;  207.452;  208.590; 3.93471
 664.90;  207.088;  202.553;  203.257; 4.53476
 665.47;  200.830;  197.111;  197.715; 3.71882
 666.05;  193.326;  189.982;  190.679; 3.34387
 666.62;  227.612;  224.362;  225.637; 3.24992
 667.19;  193.045;  189.526;  192.394; 3.51897
 667.76;  187.858;  185.401;  189.455; 2.45702
 668.33;  191.421;  187.268;  191.776; 4.15308
 668.91;  182.936;  180.791;  180.984; 2.14513
 669.48;  197.380;  194.144;  195.022; 3.23618
 670.05;  184.644;  180.894;  181.436; 3.75023
 670.62;  206.007;  200.281;  200.111; 5.72628
 671.19;  200.896;  198.511;  199.468; 2.38534
 671.76;  207.414;  203.866;  204.944; 3.54839
 672.34;  190.193;  186.975;  187.849; 3.21744
 672.91;  198.125;  195.368;  196.127; 2.75649
 673.48;  190.435;  186.802;  188.041; 3.63254
 674.05;  213.093;  209.573;  210.493; 3.51960
 674.62;  209.625;  207.087;  207.026; 2.53765
 675.19;  200.804;  197.948;  199.583; 2.85570
 675.77;  205.966;  201.447;  203.236; 4.51875
 676.34;  179.137;  175.769;  176.251; 3.36780
 676.91;  195.491;  191.238;  192.447; 4.25286
 677.48;  199.010;  196.391;  196.000; 2.61891
 678.05;  196.064;  192.746;  194.424; 3.31796
 678.62;  208.262;  204.736;  206.241; 3.52601
 679.19;  201.087;  198.563;  199.488; 2.52406
 679.77;  194.598;  190.283;  191.219; 4.31512
 680.34;  162.989;  160.541;  160.329; 2.44817
 680.91;  192.432;  188.648;  189.018; 3.78422
 681.48;  195.026;  191.487;  192.089; 3.53927
 682.05;  200.791;  197.339;  198.306; 3.45233
 682.62;  171.496;  168.150;  167.647; 3.34638
 683.19;  188.758;  185.438;  187.455; 3.32043
 683.76;  198.323;  195.381;  195.830; 2.94248
 684.33;  201.709;  197.338;  199.173; 4.37153
 684.90;  179.610;  176.698;  176.952; 2.91259
 685.48;  182.323;  178.017;  180.005; 4.30664
 686.05;  179.292;  175.510;  177.615; 3.78169
 686.62;  199.146;  194.606;  197.183; 4.53974
 687.19;  178.090;  174.969;  176.679; 3.12079
 687.76;  189.309;  185.914;  187.707; 3.39485
 688.33;  192.615;  189.154;  190.216; 3.46090
 688.90;  190.146;  186.846;  187.084; 3.29995
 689.47;  150.811;  148.416;  148.484; 2.39500
 690.04;  177.764;  174.738;  177.908; 3.02605
 690.61;  185.621;  182.567;  191.835; 3.05411
 691.18;  170.189;  166.696;  172.036; 3.49316
 691.75;  211.087;  208.024;  209.598; 3.06321
 692.32;  193.578;  189.873;  191.508; 3.70526
 692.89;  212.493;  207.457;  209.013; 5.03631
 693.46;  194.715;  191.251;  194.434; 3.46437
 694.03;  187.944;  184.158;  185.955; 3.78642
 694.60;  197.686;  195.104;  198.362; 2.58247
 695.17;  192.680;  188.694;  198.056; 3.98652
 695.74;  179.906;  176.725;  295.952; 3.18157
 696.31;  187.482;  184.744;  526.357; 2.73863
 696.88;  197.531;  194.622;  436.680; 2.90968
 697.45;  181.332;  177.704;  217.769; 3.62873
 698.02;  166.374;  163.792;  171.529; 2.58278
 698.59;  169.658;  165.358;  171.783; 4.30083
 699.16;  173.957;  171.238;  173.378; 2.71989
 699.73;  188.285;  184.024;  185.243; 4.26094
 700.30;  175.222;  172.336;  173.389; 2.88599
 700.87;  195.194;  191.384;  192.910; 3.81004
 701.44;  193.477;  189.353;  190.847; 4.12409
 702.01;  187.869;  183.724;  185.005; 4.14515
 702.58;  208.772;  206.278;  206.841; 2.49420
 703.15;  175.056;  170.817;  172.191; 4.23925
 703.72;  195.539;  192.032;  192.738; 3.50730
 704.29;  168.636;  165.421;  167.346; 3.21436
 704.86;  200.694;  197.423;  199.260; 3.27041
 705.43;  192.161;  189.620;  191.919; 2.54046
 706.00;  187.787;  185.232;  222.417; 2.55451
 706.57;  182.951;  179.068;  262.230; 3.88256
 707.14;  176.162;  173.284;  221.456; 2.87762
 707.70;  214.360;  210.068;  218.764; 4.29167
 708.27;  180.665;  178.088;  179.997; 2.57672
 708.84;  179.845;  176.225;  178.009; 3.61977
 709.41;  162.138;  159.275;  159.808; 2.86282
 709.98;  206.097;  203.382;  204.521; 2.71488
 710.55;  183.567;  178.573;  181.279; 4.99393
 711.12;  202.906;  197.937;  198.254; 4.96898
 711.69;  198.390;  194.577;  194.719; 3.81303
 712.26;  196.941;  194.317;  194.505; 2.62408
 712.83;  212.800;  209.515;  210.775; 3.28514
 713.39;  198.852;  194.495;  195.453; 4.35619
 713.96;  209.194;  205.268;  212.738; 3.92524
 714.53;  195.251;  192.113;  206.613; 3.13729
 715.10;  196.004;  192.089;  202.143; 3.91434
 715.67;  177.559;  173.571;  175.208; 3.98740
 716.24;  196.572;  193.501;  193.437; 3.07045
 716.81;  214.714;  211.803;  211.046; 2.91050
 717.37;  198.808;  194.800;  195.090; 4.00755
 717.94;  204.170;  201.338;  202.676; 2.83160
 718.51;  204.747;  202.490;  203.290; 2.25666
 719.08;  189.897;  184.744;  185.101; 5.15271
 719.65;  214.901;  211.737;  211.135; 3.16376
 720.22;  209.741;  206.163;  206.097; 3.57781
 720.78;  202.970;  199.915;  198.790; 3.05486
 721.35;  188.531;  185.004;  186.655; 3.52692
 721.92;  217.670;  213.502;  214.834; 4.16797
 722.49;  204.958;  201.629;  202.874; 3.32902
 723.06;  201.690;  196.995;  198.919; 4.69507
 723.63;  171.230;  168.261;  168.342; 2.96912
 724.19;  213.051;  210.584;  210.839; 2.46718
 724.76;  191.096;  187.411;  189.063; 3.68523
 725.33;  201.532;  197.897;  199.054; 3.63528
 725.90;  219.417;  216.085;  219.058; 3.33233
 726.46;  202.094;  199.064;  233.585; 3.03039
 727.03;  220.619;  216.827;  315.146; 3.79144
 727.60;  162.585;  158.577;  231.534; 4.00749
 728.17;  204.062;  201.250;  215.136; 2.81154
 728.74;  210.266;  207.677;  209.799; 2.58859
 729.30;  195.067;  190.703;  191.518; 4.36365
 729.87;  194.248;  189.602;  192.096; 4.64570
 730.44;  218.751;  214.480;  216.598; 4.27075
 731.01;  210.020;  206.154;  208.547; 3.86580
 731.57;  192.272;  188.769;  190.066; 3.50285
 732.14;  188.728;  185.238;  186.899; 3.48991
 732.71;  191.729;  189.504;  189.752; 2.22496
 733.28;  229.452;  225.996;  228.133; 3.45601
 733.84;  187.979;  184.066;  185.858; 3.91306
 734.41;  187.040;  183.478;  184.891; 3.56211
 734.98;  210.565;  205.839;  207.761; 4.72617
 735.54;  224.492;  220.476;  221.853; 4.01622
 736.11;  191.907;  188.486;  191.575; 3.42127
 736.68;  185.188;  181.556;  186.264; 3.63232
 737.25;  195.125;  192.285;  210.177; 2.84037
 737.81;  206.919;  204.735;  317.032; 2.18443
 738.38;  201.981;  197.338;  364.691; 4.64348
 738.95;  217.909;  214.190;  282.287; 3.71953
 739.51;  210.999;  207.651;  217.624; 3.34858
 740.08;  207.386;  203.803;  207.208; 3.58363
 740.65;  190.681;  186.757;  188.889; 3.92369
 741.21;  204.065;  201.619;  203.778; 2.44574
 741.78;  207.704;  205.043;  208.168; 2.66079
 742.35;  205.626;  202.635;  203.225; 2.99084
 742.91;  221.075;  218.064;  219.878; 3.01089
 743.48;  204.043;  202.020;  203.324; 2.02295
 744.05;  199.150;  194.598;  196.786; 4.55200
 744.61;  206.089;  202.621;  204.593; 3.46805
 745.18;  188.311;  184.489;  187.125; 3.82210
 745.75;  201.642;  198.902;  201.497; 2.74016
 746.31;  230.527;  227.117;  230.891; 3.41021
 746.88;  200.209;  197.463;  200.522; 2.74626
 747.44;  200.715;  196.948;  201.675; 3.76731
 748.01;  228.611;  225.727;  231.329; 2.88436
 748.58;  209.613;  206.459;  213.293; 3.15442
 749.14;  198.447;  195.320;  226.526; 3.12747
 749.71;  197.847;  194.992;  451.231; 2.85552
 750.28;  204.258;  200.796;  683.607; 3.46257
 750.84;  205.327;  203.385;  549.218; 1.94262
 751.41;  193.096;  188.430;  400.206; 4.66668
 751.97;  203.868;  199.507;  287.792; 4.36173
 752.54;  197.001;  193.296;  213.887; 3.70578
 753.11;  193.351;  190.444;  198.839; 2.90783
 753.67;  204.393;  200.677;  204.969; 3.71688
 754.24;  195.442;  192.725;  196.031; 2.71694
 754.80;  222.078;  218.439;  221.209; 3.63899
 755.37;  179.873;  177.462;  180.823; 2.41104
 755.93;  215.416;  212.676;  215.748; 2.74009
 756.50;  206.501;  202.908;  204.941; 3.59314
 757.07;  210.833;  208.584;  211.182; 2.24920
 757.63;  185.365;  181.690;  183.805; 3.67525
 758.20;  187.573;  183.849;  187.333; 3.72430
 758.76;  196.035;  192.298;  194.976; 3.73635
 759.33;  166.703;  163.928;  168.252; 2.77440
 759.89;  195.174;  191.178;  196.370; 3.99546
 760.46;  197.743;  193.816;  198.611; 3.92651
 761.02;  209.883;  206.116;  212.126; 3.76656
 761.59;  191.025;  188.496;  198.304; 2.52861
 762.15;  208.999;  204.001;  247.196; 4.99766
 762.72;  194.990;  191.263;  649.960; 3.72672
 763.28;  182.611;  179.637; 1239.594; 2.97377
 763.85;  197.614;  194.628;  891.355; 2.98582
 764.41;  200.959;  198.561;  332.429; 2.39787
 764.98;  207.477;  204.439;  229.754; 3.03792
 765.54;  204.904;  201.436;  213.852; 3.46798
 766.11;  200.178;  198.048;  202.867; 2.13003
 766.67;  177.453;  174.369;  178.359; 3.08408
 767.24;  203.547;  200.485;  202.687; 3.06213
 767.80;  191.557;  188.137;  191.715; 3.41919
 768.37;  190.138;  185.599;  189.443; 4.53824
 768.93;  188.023;  185.871;  189.093; 2.15129
 769.50;  199.038;  195.132;  198.465; 3.90534
 770.06;  189.161;  185.446;  190.397; 3.71439
 770.63;  195.086;  192.135;  199.082; 2.95045
 771.19;  192.048;  189.325;  227.151; 2.72250
 771.75;  180.612;  175.993;  467.412; 4.61855
 772.32;  182.811;  179.042;  655.670; 3.76860
 772.88;  198.228;  194.500;  430.088; 3.72765
 773.45;  190.204;  186.976;  224.071; 3.22771
 774.01;  192.629;  189.634;  198.828; 2.99476
 774.58;  190.076;  187.539;  194.013; 2.53681
 775.14;  213.119;  208.743;  209.763; 4.37586
 775.70;  210.468;  206.499;  210.502; 3.96891
 776.27;  202.495;  199.065;  201.405; 3.42997
 776.83;  206.429;  202.232;  204.461; 4.19702
 777.40;  184.360;  181.002;  181.585; 3.35807
 777.96;  186.924;  182.512;  183.867; 4.41212
 778.52;  210.851;  207.355;  207.743; 3.49617
 779.09;  204.940;  200.702;  201.800; 4.23823
 779.65;  206.091;  201.821;  203.406; 4.27028
 780.22;  189.840;  186.609;  187.576; 3.23133
 780.78;  218.584;  214.842;  214.658; 3.74238
 781.34;  216.762;  214.054;  214.646; 2.70743
 781.91;  194.084;  190.683;  191.584; 3.40049
 782.47;  234.932;  231.725;  232.910; 3.20654
 783.03;  213.984;  211.298;  211.398; 2.68559
 783.60;  193.601;  190.005;  191.427; 3.59564
 784.16;  222.690;  219.009;  220.687; 3.68069
 784.72;  195.758;  190.809;  193.537; 4.94875
 785.29;  203.597;  199.705;  201.212; 3.89180
 785.85;  223.863;  220.183;  220.478; 3.67985
 786.41;  207.603;  205.674;  206.244; 1.92890
 786.98;  199.761;  195.635;  197.510; 4.12595
 787.54;  222.214;  217.953;  218.860; 4.26101
 788.10;  197.764;  196.271;  196.332; 1.49306
 788.67;  211.688;  209.696;  210.754; 1.99211
 789.23;  201.539;  197.981;  198.879; 3.55816
 789.79;  215.393;  210.325;  213.134; 5.06822
 790.36;  193.958;  191.447;  191.785; 2.51127
 790.92;  209.063;  205.343;  206.587; 3.72032
 791.48;  194.695;  190.716;  193.516; 3.97937
 792.05;  218.792;  216.545;  218.837; 2.24742
 792.61;  204.550;  201.726;  203.583; 2.82448
 793.17;  213.937;  209.030;  215.509; 4.90753
 793.73;  215.561;  211.029;  244.626; 4.53258
 794.30;  211.938;  208.320;  356.072; 3.61863
 794.86;  222.501;  220.019;  393.666; 2.48168
 795.42;  203.680;  201.154;  263.159; 2.52574
 795.98;  204.575;  199.960;  211.893; 4.61479
 796.55;  194.222;  191.526;  195.486; 2.69584
 797.11;  212.952;  209.581;  212.302; 3.37089
 797.67;  244.706;  242.028;  245.084; 2.67794
 798.23;  184.873;  181.340;  184.555; 3.53300
 798.80;  218.291;  215.475;  218.281; 2.81605
 799.36;  221.060;  217.310;  232.696; 3.75010
 799.92;  213.265;  210.674;  310.328; 2.59115
 800.48;  219.971;  217.297;  413.728; 2.67420
 801.05;  215.539;  212.953;  422.721; 2.58626
 801.61;  214.247;  211.410;  353.586; 2.83731
 802.17;  205.359;  202.600;  244.980; 2.75936
 802.73;  219.984;  217.123;  224.876; 2.86141
 803.29;  187.318;  184.312;  188.525; 3.00646
 803.86;  218.000;  214.539;  216.753; 3.46152
 804.42;  221.252;  218.292;  221.554; 2.96057
 804.98;  237.021;  233.557;  235.995; 3.46462
 805.54;  221.042;  217.794;  220.379; 3.24867
 806.10;  218.579;  215.070;  216.959; 3.50972
 806.66;  251.568;  247.272;  249.895; 4.29678
 807.23;  225.601;  220.999;  223.658; 4.60283
 807.79;  217.934;  214.425;  216.850; 3.50988
 808.35;  227.197;  224.428;  227.824; 2.76893
 808.91;  208.052;  203.629;  212.987; 4.42298
 809.47;  198.891;  194.215;  264.386; 4.67604
 810.03;  210.862;  207.620;  392.351; 3.24209
 810.60;  238.322;  235.782;  507.373; 2.54014
 811.16;  202.990;  200.082;  629.834; 2.90819
 811.72;  239.415;  237.304;  583.026; 2.11125
 812.28;  211.595;  207.712;  305.465; 3.88330
 812.84;  230.379;  227.567;  245.167; 2.81135
 813.40;  241.026;  238.954;  247.112; 2.07140
 813.96;  230.819;  228.043;  235.064; 2.77545
 814.52;  231.047;  227.148;  230.727; 3.89851
 815.09;  217.976;  214.099;  217.536; 3.87656
 815.65;  232.154;  228.457;  230.944; 3.69661
 816.21;  224.260;  221.312;  222.389; 2.94766
 816.77;  228.317;  224.432;  225.660; 3.88471
 817.33;  224.876;  221.692;  222.182; 3.18377
 817.89;  221.143;  218.744;  219.820; 2.39882
 818.45;  254.070;  251.049;  252.643; 3.02087
 819.01;  231.858;  228.098;  231.281; 3.75992
 819.57;  228.030;  224.864;  224.944; 3.16597
 820.13;  226.658;  222.154;  224.373; 4.50403
 820.69;  245.189;  241.931;  243.814; 3.25808
 821.25;  223.251;  219.341;  220.494; 3.91013
 821.82;  213.908;  210.393;  212.805; 3.51418
 822.38;  232.603;  229.679;  231.349; 2.92323
 822.94;  234.498;  230.592;  232.561; 3.90529
 823.50;  231.151;  228.000;  228.708; 3.15034
 824.06;  230.497;  226.497;  230.499; 3.99939
 824.62;  220.985;  218.567;  223.250; 2.41744
 825.18;  255.559;  251.837;  282.566; 3.72149
 825.74;  214.611;  208.962;  403.395; 5.64855
 826.30;  212.584;  208.177;  526.098; 4.40660
 826.86;  217.844;  213.238;  384.641; 4.60565
 827.42;  234.756;  232.026;  267.421; 2.72970
 827.98;  238.787;  235.467;  242.654; 3.31975
 828.54;  225.261;  220.713;  226.714; 4.54781
 829.10;  216.379;  213.448;  216.639; 2.93086
 829.66;  238.974;  235.338;  237.048; 3.63591
 830.22;  222.383;  217.629;  218.789; 4.75396
 830.78;  208.449;  204.590;  205.779; 3.85901
 831.34;  223.028;  218.723;  221.566; 4.30507
 831.90;  235.755;  231.867;  232.594; 3.88812
 832.46;  223.068;  220.778;  222.131; 2.29017
 833.02;  196.091;  192.352;  193.142; 3.73922
 833.58;  229.759;  224.886;  226.969; 4.87328
 834.14;  219.893;  216.980;  217.512; 2.91333
 834.70;  231.899;  228.933;  228.005; 2.96638
 835.25;  198.505;  196.040;  196.137; 2.46443
 835.81;  209.668;  204.502;  206.325; 5.16548
 836.37;  219.589;  215.627;  216.196; 3.96154
 836.93;  232.880;  228.608;  229.202; 4.27159
 837.49;  227.839;  224.590;  224.375; 3.24864
 838.05;  203.621;  199.422;  201.486; 4.19869
 838.61;  213.690;  209.687;  213.059; 4.00274
 839.17;  210.382;  207.258;  211.516; 3.12380
 839.73;  220.772;  217.003;  251.805; 3.76885
 840.29;  229.006;  225.061;  351.164; 3.94490
 840.85;  207.044;  202.626;  347.146; 4.41795
 841.41;  218.036;  213.673;  322.252; 4.36300
 841.97;  216.984;  213.104;  411.688; 3.88006
 842.52;  216.659;  213.883;  414.539; 2.77611
 843.08;  203.719;  199.353;  272.665; 4.36616
 843.64;  209.033;  205.320;  219.877; 3.71321
 844.20;  217.747;  214.437;  219.792; 3.31026
 844.76;  228.370;  224.481;  227.489; 3.88932
 845.32;  183.972;  181.574;  182.083; 2.39837
 845.88;  214.207;  210.570;  212.597; 3.63742
 846.44;  224.008;  220.229;  221.439; 3.77947
 846.99;  234.779;  231.162;  234.014; 3.61752
 847.55;  213.576;  210.301;  211.176; 3.27558
 848.11;  184.213;  181.391;  184.253; 2.82263
 848.67;  212.253;  208.151;  209.677; 4.10168
 849.23;  189.993;  186.091;  187.354; 3.90173
 849.79;  210.457;  206.661;  207.754; 3.79578
 850.34;  217.906;  213.568;  217.249; 4.33784
 850.90;  188.706;  186.282;  198.598; 2.42389
 851.46;  227.101;  223.285;  284.448; 3.81594
 852.02;  226.481;  222.700;  310.051; 3.78099
 852.58;  186.066;  182.035;  226.479; 4.03104
 853.13;  206.526;  202.097;  212.880; 4.42910
 853.69;  207.660;  204.621;  207.591; 3.03915
 854.25;  243.692;  239.574;  240.958; 4.11820
 854.81;  203.323;  201.336;  201.292; 1.98725
 855.37;  207.959;  203.339;  203.110; 4.62031
 855.92;  228.033;  224.481;  225.933; 3.55236
 856.48;  207.474;  204.465;  204.808; 3.00941
 857.04;  227.829;  224.955;  224.937; 2.87446
 857.60;  225.119;  222.493;  221.691; 2.62651
 858.16;  220.388;  217.010;  217.639; 3.37857
 858.71;  230.852;  228.949;  227.251; 1.90362
 859.27;  213.851;  209.793;  210.295; 4.05867
 859.83;  212.917;  209.726;  211.887; 3.19172
 860.39;  210.857;  206.651;  207.988; 4.20677
 860.94;  211.211;  208.686;  208.898; 2.52583
 861.50;  204.246;  201.573;  202.645; 2.67388
 862.06;  219.310;  216.401;  216.264; 2.90893
 862.61;  219.150;  215.224;  216.371; 3.92598
 863.17;  188.968;  186.584;  187.515; 2.38403
 863.73;  227.073;  222.909;  223.272; 4.16409
 864.29;  215.100;  211.539;  211.240; 3.56114
 864.84;  221.861;  219.288;  219.672; 2.57319
 865.40;  221.646;  218.929;  219.038; 2.71724
 865.96;  206.458;  204.142;  208.804; 2.31629
 866.51;  212.355;  210.481;  222.897; 1.87335
 867.07;  223.968;  219.905;  228.737; 4.06240
 867.63;  237.852;  233.976;  236.493; 3.87545
 868.18;  232.536;  228.459;  229.520; 4.07650
 868.74;  233.244;  230.929;  230.043; 2.31455
 869.30;  216.793;  213.394;  213.752; 3.39861
 869.86;  204.629;  199.934;  201.508; 4.69466
 870.41;  241.191;  237.689;  237.917; 3.50171
 870.97;  212.908;  209.778;  209.444; 3.12976
 871.52;  215.509;  212.214;  212.542; 3.29481
 872.08;  236.968;  233.536;  235.584; 3.43187
 872.64;  221.198;  218.116;  218.988; 3.08192
 873.19;  198.477;  194.531;  195.874; 3.94597
 873.75;  213.168;  208.787;  209.072; 4.38102
 874.31;  207.677;  203.068;  203.565; 4.60908
 874.86;  228.951;  225.968;  226.270; 2.98308
 875.42;  239.692;  236.797;  237.359; 2.89508
 875.98;  220.134;  217.102;  218.238; 3.03208
 876.53;  220.855;  217.915;  218.441; 2.94008
 877.09;  239.456;  235.408;  237.172; 4.04808
 877.64;  222.466;  218.756;  219.847; 3.71008
 878.20;  220.759;  215.559;  217.135; 5.20008
 878.76;  232.321;  230.206;  230.433; 2.11508
 879.31;  194.079;  190.849;  191.037; 3.23008
 879.87;  227.591;  223.753;  225.200; 3.83808
 880.42;  220.520;  217.732;  218.426; 2.78808
 880.98;  210.323;  206.360;  206.335; 3.96308
 881.54;  243.648;  241.020;  239.657; 2.62808
 882.09;  220.062;  216.433;  217.616; 3.62908
 882.65;  237.616;  233.714;  233.592; 3.90208
 883.20;  231.100;  227.058;  227.445; 4.04208
 883.76;  232.147;  228.708;  229.491; 3.43908
 884.31;  225.894;  222.743;  222.772; 3.15108
 884.87;  255.205;  252.548;  252.670; 2.65708
 885.42;  217.755;  214.335;  214.634; 3.42008
 885.98;  205.313;  202.289;  203.171; 3.02408
 886.53;  226.576;  223.002;  221.606; 3.57408
 887.09;  236.697;  232.955;  233.277; 3.74208
 887.65;  228.155;  224.710;  227.075; 3.44508
 888.20;  223.132;  220.916;  219.081; 2.21608
 888.76;  219.475;  216.685;  216.553; 2.79008
 889.31;  230.315;  227.103;  227.063; 3.21208
 889.87;  230.377;  226.996;  226.933; 3.38108
 890.42;  221.859;  218.058;  219.404; 3.80108
 890.98;  228.036;  223.814;  224.217; 4.22208
 891.53;  201.034;  198.607;  198.956; 2.42708
 892.09;  237.275;  234.420;  233.343; 2.85508
 892.64;  220.162;  216.970;  217.915; 3.19208
 893.19;  224.163;  221.025;  221.488; 3.13808
 893.75;  211.278;  206.427;  206.559; 4.85108
 894.30;  239.195;  234.563;  236.042; 4.63208
 894.86;  208.504;  204.328;  205.145; 4.17608
 895.41;  245.261;  242.056;  242.484; 3.20508
 895.97;  210.832;  206.681;  207.451; 4.15108
 896.52;  245.819;  242.153;  244.098; 3.66608
 897.08;  229.736;  226.264;  227.097; 3.47208
 897.63;  243.675;  240.613;  242.463; 3.06208
 898.19;  226.060;  222.486;  221.941; 3.57408
 898.74;  245.698;  242.666;  241.964; 3.03208
 899.29;  244.933;  240.616;  241.423; 4.31708
 899.85;  220.827;  216.887;  217.840; 3.94008
 900.40;  227.175;  223.436;  224.623; 3.73908
 900.96;  229.043;  225.042;  224.386; 4.00108
 901.51;  224.121;  221.581;  221.344; 2.54008
 902.06;  227.526;  225.004;  225.298; 2.52208
 902.62;  238.699;  235.807;  235.915; 2.89208
 903.17;  234.520;  231.255;  232.176; 3.26508
 903.73;  238.110;  233.905;  235.707; 4.20508
 904.28;  219.385;  217.238;  216.385; 2.14708
 904.83;  253.051;  249.294;  249.126; 3.75708
 905.39;  204.800;  201.924;  202.872; 2.87608
 905.94;  231.526;  229.093;  229.504; 2.43308
 906.50;  241.878;  239.345;  239.323; 2.53308
 907.05;  221.466;  218.611;  219.363; 2.85508
 907.60;  238.798;  234.657;  236.963; 4.14108
 908.16;  229.560;  226.200;  228.085; 3.36008
 908.71;  231.788;  228.325;  229.913; 3.46308
 909.26;  236.242;  232.342;  233.397; 3.90008
 909.82;  227.864;  224.382;  227.376; 3.48208
 910.37;  232.390;  228.045;  235.399; 4.34508
 910.92;  241.499;  238.386;  281.745; 3.11308
 911.48;  239.529;  236.515;  481.890; 3.01408
 912.03;  212.736;  210.011;  613.633; 2.72508
 912.58;  230.468;  227.942;  476.373; 2.52608
 913.14;  235.935;  231.486;  301.799; 4.44908
 913.69;  258.173;  255.066;  269.488; 3.10708
 914.24;  220.150;  215.870;  222.219; 4.28008
 914.79;  218.067;  214.815;  218.365; 3.25208
 915.35;  235.894;  231.504;  234.392; 4.39008
 915.90;  241.843;  237.419;  240.487; 4.42408
 916.45;  220.247;  217.425;  218.208; 2.82208
 917.01;  235.712;  232.757;  232.894; 2.95508
 917.56;  230.357;  226.029;  227.311; 4.32808
 918.11;  229.560;  225.175;  226.003; 4.38508
 918.66;  224.440;  220.165;  220.789; 4.27508
 919.22;  237.533;  234.901;  236.207; 2.63208
 919.77;  221.887;  218.968;  221.133; 2.91908
 920.32;  226.039;  223.321;  224.244; 2.71808
 920.87;  232.269;  229.100;  232.864; 3.16908
 921.43;  224.197;  221.571;  250.486; 2.62608
 921.98;  211.945;  208.602;  276.799; 3.34308
 922.53;  216.937;  213.204;  271.522; 3.73308
 923.08;  227.862;  224.258;  245.586; 3.60408
 923.64;  229.324;  225.687;  232.794; 3.63708
 924.19;  231.535;  228.536;  231.064; 2.99908
 924.74;  211.800;  208.642;  211.372; 3.15808
 925.29;  261.585;  257.927;  260.667; 3.65808
 925.84;  236.706;  233.893;  234.899; 2.81308
 926.40;  214.999;  212.756;  212.506; 2.24308
 926.95;  217.427;  214.443;  214.402; 2.98408
 927.50;  219.086;  214.218;  216.696; 4.86808
 928.05;  229.772;  226.003;  226.066; 3.76908
 928.60;  215.079;  212.368;  210.903; 2.71108
 929.15;  231.705;  227.681;  228.948; 4.02408
 929.71;  242.153;  238.590;  238.862; 3.56308
 930.26;  222.732;  219.878;  220.145; 2.85408
 930.81;  229.631;  225.770;  226.373; 3.86108
 931.36;  238.455;  235.038;  235.832; 3.41708
 931.91;  244.688;  240.767;  241.662; 3.92108
 932.46;  240.638;  237.054;  237.655; 3.58408
 933.02;  227.273;  225.029;  224.869; 2.24408
 933.57;  216.029;  212.139;  211.497; 3.89008
 934.12;  216.215;  211.871;  212.075; 4.34408
 934.67;  232.629;  227.530;  232.336; 5.09908
 935.22;  224.258;  220.625;  225.680; 3.63308
 935.77;  249.052;  247.085;  247.265; 1.96708
 936.32;  235.687;  231.228;  233.242; 4.45908
 936.87;  237.861;  233.324;  234.404; 4.53708
 937.42;  232.700;  229.450;  230.149; 3.25008
 937.98;  212.458;  208.921;  211.733; 3.53708
 938.53;  224.484;  220.828;  221.566; 3.65608
 939.08;  215.363;  211.982;  213.091; 3.38108
 939.63;  237.201;  233.619;  233.627; 3.58208
 940.18;  246.602;  244.439;  245.398; 2.16308
 940.73;  226.031;  224.569;  224.525; 1.46208
 941.28;  212.934;  209.417;  210.218; 3.51708
 941.83;  221.748;  217.913;  218.300; 3.83508
 942.38;  215.512;  212.660;  212.832; 2.85208
 942.93;  232.705;  229.033;  228.633; 3.67208
 943.48;  230.081;  226.126;  227.078; 3.95508
 944.03;  214.251;  210.595;  210.439; 3.65608
 944.58;  220.036;  216.394;  217.194; 3.64208
 945.13;  215.421;  212.115;  212.387; 3.30608
 945.68;  207.934;  205.026;  206.217; 2.90808
 946.23;  217.842;  214.309;  213.880; 3.53308
 946.79;  217.055;  213.919;  214.171; 3.13608
 947.34;  236.318;  232.970;  232.911; 3.34808
 947.89;  241.600;  238.454;  238.836; 3.14608
 948.44;  221.151;  218.034;  219.284; 3.11708
 948.99;  219.690;  216.337;  216.924; 3.35308
 949.54;  234.709;  231.747;  230.186; 2.96208
 950.09;  219.280;  215.315;  216.219; 3.96508
 950.64;  217.672;  214.496;  213.164; 3.17608
 951.19;  199.126;  194.598;  195.816; 4.52808
 951.73;  189.738;  187.468;  187.208; 2.27008
 952.28;  234.487;  230.153;  230.870; 4.33408
 952.83;  226.337;  223.607;  222.726; 2.73008
 953.38;  246.680;  243.162;  243.581; 3.51808
 953.93;  220.867;  217.030;  216.650; 3.83708
 954.48;  221.900;  217.431;  219.371; 4.46908
 955.03;  226.080;  222.576;  222.641; 3.50408
 955.58;  222.638;  220.979;  220.638; 1.65908
 956.13;  195.020;  192.731;  192.119; 2.28908
 956.68;  206.414;  203.079;  204.813; 3.33508
 957.23;  193.949;  191.531;  190.369; 2.41808
 957.78;  207.876;  203.775;  204.342; 4.10108
 958.33;  187.285;  183.503;  184.908; 3.78208
 958.88;  216.771;  212.988;  214.074; 3.78308
 959.43;  223.241;  220.040;  220.660; 3.20108
 959.98;  209.497;  206.625;  207.110; 2.87208
 960.53;  239.973;  234.353;  235.735; 5.62008
 961.07;  209.865;  205.899;  205.337; 3.96608
 961.62;  253.872;  249.831;  250.070; 4.04108
 962.17;  216.866;  212.941;  213.949; 3.92508
 962.72;  220.349;  216.711;  217.978; 3.63808
 963.27;  221.296;  218.041;  218.272; 3.25508
 963.82;  209.035;  206.243;  207.269; 2.79208
 964.37;  231.164;  227.685;  240.124; 3.47908
 964.92;  211.864;  208.531;  264.450; 3.33308
 965.46;  200.611;  196.744;  280.889; 3.86708
 966.01;  213.685;  209.771;  262.804; 3.91408
 966.56;  226.278;  222.364;  237.515; 3.91408
 967.11;  227.913;  224.708;  227.550; 3.20508
 967.66;  214.194;  211.547;  213.586; 2.64708
 968.21;  211.303;  207.716;  208.194; 3.58708
 968.75;  227.941;  225.245;  224.204; 2.69608
 969.30;  219.536;  216.954;  216.833; 2.58208
 969.85;  237.609;  234.176;  233.361; 3.43308
 970.40;  224.668;  222.700;  220.821; 1.96808
 970.95;  229.749;  226.417;  226.071; 3.33208
 971.50;  226.442;  223.073;  223.994; 3.36908
 972.04;  227.627;  223.538;  225.460; 4.08908
 972.59;  237.159;  234.311;  233.089; 2.84808
 973.14;  230.083;  226.251;  226.225; 3.83208
 973.69;  238.410;  235.170;  235.642; 3.24008
 974.24;  222.848;  219.690;  220.206; 3.15808
 974.78;  219.417;  216.344;  215.873; 3.07308
 975.33;  248.363;  245.614;  245.834; 2.74908
 975.88;  233.000;  229.418;  229.422; 3.58208
 976.43;  231.362;  227.936;  227.200; 3.42608
 976.97;  224.547;  221.542;  220.970; 3.00508
 977.52;  214.153;  210.631;  212.176; 3.52208
 978.07;  258.822;  256.094;  261.140; 2.72808
 978.62;  249.527;  245.501;  249.999; 4.02608
 979.16;  246.235;  243.324;  245.899; 2.91108
 979.71;  213.362;  210.246;  211.338; 3.11608
 980.26;  236.178;  232.162;  233.353; 4.01608
 980.81;  235.353;  231.327;  230.718; 4.02608
 981.35;  257.801;  254.473;  254.809; 3.32808
 981.90;  246.951;  243.010;  241.517; 3.94108
 982.45;  243.068;  240.057;  240.405; 3.01108
 982.99;  245.616;  241.941;  242.664; 3.67508
 983.54;  243.988;  239.979;  239.293; 4.00908
 984.09;  234.484;  230.442;  231.355; 4.04208
 984.63;  232.735;  228.876;  228.448; 3.85908
 985.18;  245.302;  242.114;  242.377; 3.18808
 985.73;  239.874;  235.992;  235.860; 3.88208
 986.27;  228.498;  225.317;  224.967; 3.18108
 986.82;  236.705;  232.007;  233.190; 4.69808
 987.37;  250.870;  246.398;  246.808; 4.47208
 987.91;  241.045;  236.684;  236.652; 4.36108
 988.46;  249.336;  244.922;  247.721; 4.41408
 989.01;  242.405;  239.168;  237.572; 3.23708
 989.55;  243.678;  240.845;  241.214; 2.83308
 990.10;  252.089;  247.882;  248.030; 4.20708
 990.65;  267.053;  264.063;  262.831; 2.99007
 991.19;  240.581;  236.583;  236.217; 3.99808
 991.74;  257.533;  255.060;  254.016; 2.47308
 992.29;  246.860;  242.377;  243.190; 4.48308
 992.83;  257.975;  255.509;  254.085; 2.46608
 993.38;  253.150;  248.869;  247.359; 4.28108
 993.92;  231.404;  228.304;  226.472; 3.10008
 994.47;  220.300;  216.438;  216.807; 3.86208
 995.02;  240.206;  236.276;  236.735; 3.93008
 995.56;  260.262;  256.141;  256.692; 4.12108
 996.11;  249.775;  247.013;  246.882; 2.76208
 996.65;  250.484;  247.453;  247.876; 3.03108
 997.20;  245.309;  240.169;  240.294; 5.14008
 997.75;  243.297;  239.996;  239.437; 3.30108
 998.29;  219.456;  216.003;  216.133; 3.45308
 998.84;  248.876;  244.933;  245.329; 3.94308
 999.38;  249.411;  246.476;  244.812; 2.93508
 999.93;  266.416;  261.243;  261.675; 5.17308
1000.47;  262.594;  260.203;  260.831; 2.39108
1001.02;  256.880;  254.354;  253.386; 2.52608
1001.56;  245.272;  240.741;  239.780; 4.53108
1002.11;  234.660;  231.050;  230.445; 3.61008
1002.65;  227.421;  224.299;  223.243; 3.12208
1003.20;  236.316;  232.482;  231.881; 3.83408
1003.75;  269.447;  265.828;  266.036; 3.61908
1004.29;  236.614;  234.636;  233.303; 1.97808
1004.84;  223.205;  219.628;  220.546; 3.57708
1005.38;  225.778;  222.757;  222.859; 3.02108
1005.93;  245.459;  242.295;  241.364; 3.16408
1006.47;  224.346;  220.477;  220.692; 3.86908
1007.02;  231.025;  227.889;  227.662; 3.13608
1007.56;  247.183;  243.707;  242.798; 3.47608
1008.11;  252.370;  250.297;  249.411; 2.07308
1008.65;  212.079;  207.523;  207.079; 4.55608
1009.19;  239.726;  235.898;  236.390; 3.82808
1009.74;  235.033;  230.551;  231.223; 4.48208
1010.28;  237.459;  233.466;  234.215; 3.99308
1010.83;  246.016;  242.042;  242.437; 3.97408
1011.37;  238.673;  235.158;  235.037; 3.51508
1011.92;  238.469;  233.780;  235.208; 4.68908
1012.46;  231.339;  227.256;  230.410; 4.08308
1013.01;  267.072;  262.076;  282.128; 4.99608
1013.55;  236.975;  232.732;  261.377; 4.24308
1014.09;  231.881;  228.539;  247.080; 3.34208
1014.64;  230.956;  227.787;  235.199; 3.16908
1015.18;  228.721;  225.081;  226.875; 3.64008
1015.73;  222.918;  220.280;  221.345; 2.63808
1016.27;  243.348;  240.147;  239.850; 3.20108
1016.82;  236.040;  232.308;  232.899; 3.73208
1017.36;  227.956;  224.141;  224.463; 3.81508
1017.90;  217.576;  214.151;  214.821; 3.42508
1018.45;  213.308;  209.241;  209.010; 4.06708
1018.99;  214.280;  211.398;  213.271; 2.88208
1019.53;  203.277;  200.198;  199.948; 3.07908
1020.08;  230.379;  227.278;  227.485; 3.10108
1020.62;  232.033;  228.572;  229.827; 3.46108
1021.17;  236.368;  232.641;  232.392; 3.72708
1021.71;  237.028;  231.938;  232.866; 5.09008
1022.25;  244.231;  238.795;  239.904; 5.43608
1022.80;  217.495;  213.494;  214.907; 4.00108
1023.34;  214.971;  210.921;  211.512; 4.05008
1023.88;  229.167;  225.958;  224.103; 3.20908
1024.43;  233.592;  229.192;  229.391; 4.40008
1024.97;  236.414;  232.468;  233.233; 3.94608
1025.51;  216.885;  213.056;  213.395; 3.82908
1026.06;  232.475;  228.663;  227.836; 3.81208
1026.60;  236.751;  232.935;  233.723; 3.81608
1027.14;  249.075;  244.409;  244.366; 4.66608
1027.69;  237.900;  233.391;  232.097; 4.50908
1028.23;  231.417;  227.864;  228.253; 3.55308
1028.77;  216.412;  210.959;  212.300; 5.45308
1029.31;  228.133;  223.907;  224.128; 4.22608
1029.86;  220.151;  217.588;  216.083; 2.56308
1030.40;  266.183;  261.277;  262.077; 4.90608
1030.94;  235.083;  231.815;  232.446; 3.26808
1031.48;  244.564;  241.865;  240.883; 2.69908
1032.03;  231.908;  228.825;  227.501; 3.08308
1032.57;  234.590;  229.710;  229.752; 4.88008
1033.11;  228.070;  225.599;  224.720; 2.47108
1033.65;  218.638;  215.604;  213.877; 3.03408
1034.20;  239.201;  234.869;  235.433; 4.33208
1034.74;  236.650;  231.769;  231.019; 4.88108
1035.28;  235.528;  231.913;  231.832; 3.61508
1035.82;  212.443;  208.719;  209.377; 3.72408
1036.37;  226.642;  223.026;  221.872; 3.61608
1036.91;  251.342;  247.037;  248.405; 4.30508
1037.45;  242.557;  238.466;  237.398; 4.09108
1037.99;  231.090;  228.249;  227.965; 2.84108
1038.53;  232.762;  228.503;  229.202; 4.25908
1039.08;  220.565;  217.063;  217.129; 3.50208
1039.62;  220.794;  217.190;  215.711; 3.60408
1040.16;  224.881;  221.639;  220.940; 3.24208
1040.70;  230.474;  227.786;  226.788; 2.68808
1041.24;  247.164;  243.354;  243.321; 3.81008
1041.79;  221.127;  217.552;  217.096; 3.57508
1042.33;  228.534;  224.346;  223.935; 4.18808
1042.87;  221.691;  217.206;  216.620; 4.48508
1043.41;  227.234;  222.501;  221.794; 4.73308
1043.95;  239.480;  234.598;  234.674; 4.88208
1044.49;  206.630;  203.225;  204.268; 3.40508
1045.04;  237.737;  233.232;  234.685; 4.50508
1045.58;  229.325;  225.819;  225.050; 3.50608
1046.12;  259.142;  254.707;  256.429; 4.43508
1046.66;  239.913;  236.566;  239.465; 3.34708
1047.20;  221.653;  218.107;  220.647; 3.54608
1047.74;  256.051;  252.960;  252.264; 3.09108
1048.28;  238.261;  233.803;  234.715; 4.45808
1048.82;  252.647;  249.718;  249.899; 2.92908
1049.36;  257.297;  252.411;  252.537; 4.88608
1049.91;  244.955;  240.165;  240.839; 4.79008
1050.45;  237.187;  233.614;  233.443; 3.57308
1050.99;  256.071;  253.961;  253.565; 2.11008
1051.53;  261.583;  258.279;  258.198; 3.30407
1052.07;  234.490;  231.776;  231.546; 2.71408
1052.61;  237.264;  232.081;  231.951; 5.18308
1053.15;  246.269;  243.212;  242.976; 3.05708
1053.69;  239.245;  235.231;  236.380; 4.01408
1054.23;  244.543;  240.856;  241.171; 3.68708
1054.77;  261.132;  256.236;  255.399; 4.89608
1055.31;  244.798;  239.527;  239.084; 5.27108
1055.85;  235.377;  231.508;  232.209; 3.86908
1056.39;  236.540;  231.911;  231.936; 4.62908
1056.93;  244.954;  240.977;  240.459; 3.97708
1057.47;  254.806;  251.819;  250.912; 2.98708
1058.01;  252.151;  247.962;  248.715; 4.18908
1058.55;  248.123;  245.288;  246.950; 2.83508
1059.09;  250.395;  246.810;  246.105; 3.58508
1059.63;  257.238;  254.581;  252.957; 2.65708
1060.17;  269.827;  267.383;  266.822; 2.44408
1060.71;  234.629;  231.281;  231.876; 3.34808
1061.25;  247.349;  243.365;  243.753; 3.98408
1061.79;  248.343;  244.794;  243.820; 3.54908
1062.33;  240.643;  237.078;  237.818; 3.56508
1062.87;  272.019;  267.830;  267.178; 4.18908
1063.41;  250.463;  246.600;  245.913; 3.86307
1063.95;  257.806;  253.288;  253.445; 4.51808
1064.49;  238.896;  235.054;  236.618; 3.84208
1065.03;  295.855;  291.317;  291.184; 4.53808
1065.57;  268.914;  264.609;  263.442; 4.30508
1066.11;  250.608;  247.101;  245.700; 3.50708
1066.65;  246.130;  243.172;  242.225; 2.95808
1067.19;  263.012;  260.238;  258.730; 2.77408
1067.73;  273.137;  268.166;  267.504; 4.97108
1068.27;  241.281;  236.331;  236.573; 4.95008
1068.81;  246.193;  243.212;  242.997; 2.98108
1069.35;  271.232;  267.789;  267.481; 3.44307
1069.89;  239.164;  235.643;  234.383; 3.52108
1070.43;  264.016;  259.949;  259.943; 4.06707
1070.96;  260.520;  256.385;  254.939; 4.13507
1071.50;  257.984;  254.423;  253.966; 3.56108
1072.04;  254.199;  250.627;  249.432; 3.57208
1072.58;  259.999;  256.361;  255.917; 3.63808
1073.12;  270.316;  267.410;  266.714; 2.90608
1073.66;  241.275;  238.047;  237.410; 3.22808
1074.20;  250.097;  246.415;  248.196; 3.68207
1074.74;  258.503;  253.679;  253.551; 4.82408
1075.27;  245.709;  243.478;  243.897; 2.23108
1075.81;  248.112;  244.072;  243.029; 4.04008
1076.35;  254.816;  250.500;  249.120; 4.31608
1076.89;  256.883;  252.503;  251.325; 4.38008
1077.43;  272.081;  269.825;  267.999; 2.25608
1077.97;  260.611;  256.349;  256.720; 4.26208
1078.50;  256.514;  252.629;  252.985; 3.88508
1079.04;  248.037;  244.649;  242.128; 3.38808
1079.58;  253.916;  249.365;  249.444; 4.55108
1080.12;  249.328;  245.001;  245.012; 4.32708
1080.66;  263.962;  261.188;  260.419; 2.77407
1081.20;  243.212;  239.507;  239.541; 3.70508
1081.73;  238.722;  233.600;  233.654; 5.12208
1082.27;  258.962;  254.179;  252.998; 4.78307
1082.81;  261.591;  258.626;  257.378; 2.96508
1083.35;  253.967;  249.198;  248.599; 4.76908
1083.88;  252.662;  248.672;  248.179; 3.99008
1084.42;  269.444;  264.464;  265.394; 4.98008
1084.96;  246.717;  243.203;  241.314; 3.51408
1085.50;  256.077;  250.098;  249.738; 5.97908
1086.04;  251.303;  246.902;  246.985; 4.40108
1086.57;  276.494;  271.733;  271.691; 4.76108
1087.11;  252.579;  249.627;  249.705; 2.95208
1087.65;  244.120;  240.219;  240.281; 3.90108
1088.19;  269.248;  265.083;  264.683; 4.16508
1088.72;  252.033;  249.367;  249.220; 2.66608
1089.26;  244.554;  241.925;  240.830; 2.62908
1089.80;  239.156;  235.339;  235.334; 3.81708
1090.33;  277.216;  273.404;  273.528; 3.81207
1090.87;  233.127;  228.116;  227.543; 5.01108
1091.41;  238.282;  234.206;  233.488; 4.07608
1091.95;  255.883;  251.324;  250.943; 4.55908
1092.48;  266.900;  261.837;  263.655; 5.06307
1093.02;  239.265;  236.268;  235.415; 2.99708
1093.56;  258.957;  255.327;  254.412; 3.63007
1094.09;  233.393;  230.063;  229.661; 3.33008
1094.63;  234.614;  231.309;  230.537; 3.30508
1095.17;  240.848;  237.088;  236.861; 3.76008
1095.70;  255.629;  250.927;  250.037; 4.70208
1096.24;  242.660;  238.468;  237.502; 4.19208
1096.78;  239.251;  235.585;  234.609; 3.66608
1097.31;  241.584;  237.272;  237.279; 4.31208
1097.85;  247.820;  244.074;  243.933; 3.74608
1098.39;  231.604;  227.740;  227.157; 3.86408
1098.92;  246.289;  243.127;  243.537; 3.16208
1099.46;  253.634;  249.541;  249.128; 4.09308
1099.99;  243.651;  239.752;  239.172; 3.89908
1100.53;  248.221;  244.654;  244.501; 3.56708

